# All data in this file is centered around the brightness peak.

# FILENAME = J0351-38_R_ss.fits / Image file name
# PIXSIZE =      0.432007 / Pixel size [arcsec]
# FLUX_UNITS = erg/cm^2/Angstrom/sec / Flux units
# FLUX_SCALE =    4.5565761e-19 / Flux scale [above units / (DN/sec)]
# FLUXCAL =    1 / Flux calibration complete?
# PROFTYPE = brightness / Profile type (isophote/brightness/other)
# NUMGALS =        1 / Number of sources in image
#
# GALINDEX =        1 / Source index (1 - N)
# XCENTER =       1032.85 / X(center) [pixels]
# YCENTER =       1121.75 / Y(center) [pixels]
# AXERAT =       1.19935 / Axial ratio (a/b)
# PA_IMAGE =       123.714 / Position angle, counterclockwise from Up [deg]
# PA =        123.27735 / Position angle, from N towards E [deg]
# SKYLEV =       4.44954 / Sky level [DN/sec]
# ERR_SKY_PIXEL =      0.113184 / Sky RMS (pixel-to-pixel) [DN/sec]
# ERR_SKY_BOX =    0.00245326 / Sky RMS (box-to-box) [DN/sec]
# FLUXRAD_S =       187.219 / Sky aperture radius [pixels]
# FLUXRAD_F =       187.219 / Flux aperture radius [pixels]
# FLUXRAD_C =      -999.000 / Radius where SNR=3 [pixels]
# FLUX_S =        7416.0975 / Flux within sky aperture [DN/sec]
# FLUX_F =        7416.0975 / Flux within flux aperture [DN/sec]
# ERR_FLUX_S_SKY =       225.240 / Uncertainty in FLUX_S due to sky [DN/sec]
# ERR_FLUX_F_SKY =       225.240 / Uncertainty in FLUX_F due to sky [DN/sec]
# RE_F =        77.245773 / Flux aperture half-light radius [pixels]
# ERR_RE_F_SKY =        1.0336032 / Uncertainty in RE_F due to sky [pixels]
# SE_F =       0.19780903 / Face-on surface brightness within RE_F [DN/sec/pixel]
#  a[pix]  F(interior)     dF       N(good) N(bad) SurfBright  Sigma(SB)    dF(raw)  Sigma(F,sky)
# all Flux and Surface Brightness values are in [DN/sec]
   0.0000      0.00000      0.00000      0      0      0.00000      0.00000      0.00000      0.00000
   3.0703      10.7989      10.7989     23      0     0.437327     0.117427      10.0585    0.0605782
   6.1407      47.0737      36.2748     76      0     0.489678     0.106917      37.2155     0.242313
   9.2110      101.125      54.0511    118      3     0.437785     0.156540      51.6587     0.545203
  12.2813      181.839      80.7144    176      0     0.466960     0.145233      82.1850     0.969251
  15.3516      281.926      100.087    222      0     0.450361     0.158232      99.9802      1.51445
  18.4220      399.952      118.026    271      0     0.434523     0.163591      117.756      2.18081
  21.4923      531.913      131.960    322      2     0.411081     0.190608      132.368      2.96833
  24.5626      673.871      141.959    373      1     0.383263     0.193933      142.957      3.87700
  27.6330      810.408      136.537    417      0     0.325259     0.165738      135.633      4.90683
  30.7033      962.927      152.519    469      0     0.325085     0.150106      152.465      6.05782
  33.7736      1116.62      153.694    513      0     0.296392     0.144158      152.049      7.32996
  36.8440      1286.04      169.423    563      4     0.298312     0.147536      167.950      8.72326
  39.9143      1458.29      172.242    622      1     0.279015     0.160000      173.547      10.2377
  42.9846      1636.92      178.636    659      3     0.267936     0.143502      176.570      11.8733
  46.0549      1822.01      185.089    702     12     0.258470     0.146498      181.446      13.6301
  49.1253      1993.33      171.317    767      4     0.223802     0.126130      171.656      15.5080
  52.1956      2162.79      169.465    803      6     0.207966     0.136818      166.997      17.5071
  55.2659      2337.65      174.853    868      5     0.202317     0.139073      175.612      19.6273
  58.3363      2539.67      202.024    914      1     0.221120     0.193067      202.103      21.8687
  61.4066      2718.04      178.373    952      8     0.185222     0.167111      176.331      24.2313
  64.4769      2894.42      176.382   1011      5     0.174220     0.136348      176.136      26.7150
  67.5473      3075.20      180.771   1064      0     0.170250     0.135538      181.146      29.3198
  70.6176      3264.41      189.214   1080     16     0.170281     0.143860      183.904      32.0459
  73.6879      3460.83      196.416   1141     23     0.169242     0.154441      193.105      34.8930
  76.7582      3649.85      189.020   1204      8     0.156221     0.148812      188.090      37.8614
  79.8286      3853.24      203.398   1255      1     0.161511     0.144160      202.697      40.9508
  82.8989      4047.60      194.361   1300      6     0.148511     0.134171      193.065      44.1615
  85.9692      4242.90      195.298   1359      9     0.143801     0.144966      195.426      47.4933
  89.0396      4435.51      192.606   1385     10     0.136843     0.152374      189.527      50.9462
  92.1099      4618.88      183.376   1449     12     0.125869     0.131667      182.384      54.5204
  95.1802      4795.82      176.931   1492     28     0.117463     0.125640      175.255      58.2156
  98.2506      4975.88      180.063   1509     36     0.115747     0.126606      174.663      62.0320
 101.3209      5183.88      208.001   1589     24     0.129592     0.189242      205.922      65.9696
 104.3912      5402.71      218.834   1624     19     0.132272     0.259749      214.809      70.0284
 107.4615      5597.17      194.456   1675     38     0.114130     0.203276      191.167      74.2083
 110.5319      5758.57      161.397   1701     45    0.0920590     0.153575      156.592      78.5093
 113.6022      5916.72      158.153   1761     35    0.0877367     0.130138      154.504      82.9315
 116.6725      6060.80      144.078   1826     27    0.0777971     0.121687      142.058      87.4749
 119.7429      6193.75      132.952   1894     12    0.0699247     0.122377      132.437      92.1394
 122.8132      6319.29      125.545   1940     13    0.0643576     0.115001      124.854      96.9251
 125.8835      6432.62      113.322   1995      8    0.0566573     0.112087      113.031      101.832
 128.9539      6548.41      115.788   2027     15    0.0564957     0.117278      114.517      106.860
 132.0242      6655.94      107.535   2097      7    0.0512338     0.112255      107.437      112.009
 135.0945      6739.59      83.6490   2140     11    0.0389375     0.105232      83.3262      117.279
 138.1648      6822.39      82.8022   2173     18    0.0376773     0.108679      81.8727      122.671
 141.2352      6910.17      87.7765   2215     43    0.0390628     0.117100      86.5240      128.183
 144.3055      6986.26      76.0935   2233     70    0.0331355     0.113597      73.9915      133.817
 147.3758      7048.95      62.6910   2277     74    0.0267244     0.107082      60.8515      139.572
 150.4462      7094.59      45.6346   2307     61    0.0190524     0.104798      43.9538      145.448
 153.5165      7139.22      44.6304   2434     24    0.0182567     0.105420      44.4368      151.445
 156.5868      7165.40      26.1842   2468     30    0.0104989     0.105417      25.9113      157.564
 159.6572      7194.50      29.0962   2486     46    0.0114400     0.103884      28.4399      163.803
 162.7275      7217.21      22.7105   2586     19   0.00875922     0.101294      22.6513      170.164
 165.7978      7251.83      34.6210   2614     20    0.0131034     0.100901      34.2522      176.646
 168.8681      7270.27      18.4409   2664     28   0.00685145    0.0994881      18.2523      183.249
 171.9385      7294.11      23.8418   2706     38   0.00869847     0.102430      23.5381      189.973
 175.0088      7293.22    -0.892803   2753     28 -0.000319966     0.102612    -0.880867      196.818
 178.0791      7335.96      42.7391   2833      8    0.0150506     0.112058      42.6385      203.785
 181.1495      7364.28      28.3263   2895     13   0.00980467     0.124716      28.3845      210.873
 187.2190      7416.10      51.8130   5831     16   0.00884704     0.121064      51.5871      225.240
 190.2893      7443.60      27.4997   3010     25   0.00905764     0.115160      27.2635      232.689
 193.5132      7471.50      27.9001   3215     27   0.00860838     0.112150      27.6759      240.640
 196.8982      7496.48      24.9800   3423     44   0.00721608     0.122343      24.7007      249.132
 200.4525      7520.22      23.7424   3623     69   0.00641793     0.102966      23.2522      258.208
 204.1845      7540.72      20.4959   3901     59   0.00518151     0.103029      20.2131      267.912
 208.1031      7561.73      21.0148   4148     85   0.00496581     0.105469      20.5982      278.294
 212.2176      7563.93      2.19897   4409    113  0.000485416     0.106073      2.14020      289.407
 216.5379      7601.30      37.3694   4698    155   0.00770180     0.142889      36.1831      301.310
 221.0742      7633.50      32.1996   5073    122   0.00619240     0.109380      31.4141      314.067
 225.8372      7676.10      42.6015   5569     17   0.00764034     0.109139      42.5491      327.746
