# All data in this file is centered around the brightness peak.

# FILENAME = J0441-02_R_ss.fits / Image file name
# PIXSIZE =      0.432014 / Pixel size [arcsec]
# FLUX_UNITS = erg/cm^2/Angstrom/sec / Flux units
# FLUX_SCALE =    4.6226177e-19 / Flux scale [above units / (DN/sec)]
# FLUXCAL =    1 / Flux calibration complete?
# PROFTYPE = brightness / Profile type (isophote/brightness/other)
# NUMGALS =        1 / Number of sources in image
#
# GALINDEX =        1 / Source index (1 - N)
# XCENTER =       1081.85 / X(center) [pixels]
# YCENTER =       928.402 / Y(center) [pixels]
# AXERAT =       1.37681 / Axial ratio (a/b)
# PA_IMAGE =       38.5902 / Position angle, counterclockwise from Up [deg]
# PA =        38.157318 / Position angle, from N towards E [deg]
# SKYLEV =       5.32216 / Sky level [DN/sec]
# ERR_SKY_PIXEL =      0.144446 / Sky RMS (pixel-to-pixel) [DN/sec]
# ERR_SKY_BOX =    0.00897400 / Sky RMS (box-to-box) [DN/sec]
# FLUXRAD_S =       567.853 / Sky aperture radius [pixels]
# FLUXRAD_F =       567.853 / Flux aperture radius [pixels]
# FLUXRAD_C =      -999.000 / Radius where SNR=3 [pixels]
# FLUX_S =        354998.69 / Flux within sky aperture [DN/sec]
# FLUX_F =        354998.69 / Flux within flux aperture [DN/sec]
# ERR_FLUX_S_SKY =       6602.87 / Uncertainty in FLUX_S due to sky [DN/sec]
# ERR_FLUX_F_SKY =       6602.87 / Uncertainty in FLUX_F due to sky [DN/sec]
# RE_F =        136.08759 / Flux aperture half-light radius [pixels]
# ERR_RE_F_SKY =        1.8538976 / Uncertainty in RE_F due to sky [pixels]
# SE_F =        3.0507725 / Face-on surface brightness within RE_F [DN/sec/pixel]
#  a[pix]  F(interior)     dF       N(good) N(bad) SurfBright  Sigma(SB)    dF(raw)  Sigma(F,sky)
# all Flux and Surface Brightness values are in [DN/sec]
   0.0000      0.00000      0.00000      0      0      0.00000      0.00000      0.00000      0.00000
   3.3696      2981.68      2981.68     26      0      115.089      48.7241      2992.31     0.232495
   6.7392      7399.48      4417.80     78      0      56.8404      22.3501      4433.55     0.929981
  10.1088      11378.5      3979.00    130      0      30.7168      8.10803      3993.19      2.09246
  13.4783      15363.9      3985.38    183      0      21.9758      4.15992      4021.56      3.71992
  16.8479      19431.1      4067.22    234      0      17.4432      2.75556      4081.71      5.81238
  20.2175      23502.5      4071.45    278      0      14.2866      2.17950      3971.67      8.36983
  23.5871      27453.3      3950.75    336      0      11.7303      1.85647      3941.37      11.3923
  26.9567      31264.0      3810.70    391      0      9.80586      1.59729      3834.09      14.8797
  30.3263      35009.9      3745.95    444      0      8.50520      1.48785      3776.31      18.8321
  33.6959      38767.0      3757.06    487      0      7.63250      1.50367      3717.03      23.2495
  37.0654      42586.7      3819.73    548      0      7.02078      1.54116      3847.39      28.1319
  40.4350      46440.5      3853.74    593      0      6.46736      1.43938      3835.14      33.4793
  43.8046      50398.1      3957.62    646      0      6.11035      1.26149      3947.29      39.2917
  47.1742      54464.6      4066.50    697      0      5.81339      1.14563      4051.93      45.5691
  50.5438      58644.3      4179.74    756      0      5.56319      1.02944      4205.77      52.3114
  53.9134      63223.6      4579.32    813      0      5.70178      2.54384      4635.55      59.5188
  57.2830      67720.1      4496.51    850      0      5.25937      1.38439      4470.46      67.1911
  60.6525      72328.5      4608.38    905      0      5.08221      1.07819      4599.40      75.3284
  64.0221      77112.0      4783.48    958      0      4.99016      1.07368      4780.57      83.9308
  67.3917      81939.5      4827.54   1011      0      4.77786     0.981913      4830.41      92.9981
  70.7613      86859.4      4919.88   1063      0      4.63173      1.12690      4923.53      102.530
  74.1309      91630.7      4771.27   1114      0      4.28289     0.932425      4771.14      112.528
  77.5005      96225.4      4594.73   1173      0      3.94112     0.538835      4622.94      122.990
  80.8701      100686.      4460.35   1204      0      3.66305     0.478610      4410.31      133.917
  84.2397      105074.      4388.03   1278      0      3.45658     0.600906      4417.51      145.309
  87.6092      109393.      4319.28   1310      0      3.26898     0.559219      4282.37      157.167
  90.9788      113647.      4253.57   1368      0      3.09778     0.494953      4237.77      169.489
  94.3484      117893.      4246.54   1444      0      2.98019     0.451260      4303.40      182.276
  97.7180      122217.      4323.66   1473      0      2.92785     0.511440      4312.72      195.528
 101.0876      126650.      4433.15   1529      0      2.90024     0.598339      4434.46      209.246
 104.4572      131137.      4487.33   1570      0      2.83942     0.598896      4457.89      223.428
 107.8268      135718.      4580.40   1632      0      2.80630     0.606343      4579.88      238.075
 111.1963      140394.      4676.30   1686      0      2.77691     0.622766      4681.87      253.187
 114.5659      145178.      4784.10   1735      0      2.75612     0.641640      4781.86      268.764
 117.9355      149975.      4797.31   1788      0      2.68361     0.621052      4798.30      284.807
 121.3051      154865.      4889.63   1849      0      2.65822     0.688787      4915.04      301.314
 124.6747      159867.      5001.72   1891      0      2.64465     0.796821      5001.04      318.286
 128.0443      164987.      5120.20   1933      4      2.63510     0.897215      5093.65      335.723
 131.4139      170150.      5162.78   1989      0      2.58801     0.942638      5147.56      353.625
 134.7834      175346.      5196.61   2057      0      2.53901     0.896309      5222.74      371.992
 138.1530      180551.      5204.41   2102      0      2.48004     0.915657      5213.04      390.824
 141.5226      185808.      5257.57   2153      0      2.44501     0.948765      5264.10      410.121
 144.8922      191070.      5261.33   2190      0      2.38918     0.969044      5232.31      429.884
 148.2618      196328.      5257.86   2261      0      2.33272     0.952756      5274.27      450.111
 151.6314      201552.      5224.79   2308      0      2.26596     0.928384      5229.83      470.803
 155.0010      206820.      5267.43   2355      0      2.23424     0.982742      5261.63      491.960
 158.3706      212070.      5249.87   2414      0      2.17890      1.03294      5259.87      513.582
 161.7401      217172.      5101.89   2455      0      2.07290     0.935172      5088.98      535.669
 165.1097      222127.      4955.19   2522      0      1.97180     0.915457      4972.88      558.221
 168.4793      226987.      4860.48   2545      0      1.89503     0.977260      4822.85      581.238
 171.8489      231707.      4720.10   2620      0      1.80386     0.896187      4726.11      604.720
 175.2185      236336.      4628.82   2658      0      1.73462     0.860591      4610.62      628.667
 178.5881      240940.      4603.45   2743      0      1.69226     0.887503      4641.86      653.079
 181.9576      245521.      4581.13   2764      0      1.65258     0.903030      4567.73      677.956
 185.3272      250013.      4492.03   2829      0      1.59070     0.978174      4500.09      703.298
 188.6968      254259.      4246.16   2883      0      1.47654     0.758056      4256.86      729.105
 192.0664      258331.      4072.53   2915      0      1.39110     0.714513      4055.05      755.377
 195.4360      262213.      3881.89   2958     13      1.30292     0.674218      3854.03      782.114
 198.8056      265912.      3698.33   3011     23      1.22009     0.646895      3673.69      809.316
 202.1752      269462.      3550.56   3076     24      1.15166     0.634695      3542.50      836.983
 205.5448      272851.      3389.19   3123     20      1.08114     0.599402      3376.40      865.115
 208.9143      276029.      3177.30   3177      2     0.997070     0.543605      3167.69      893.711
 212.2839      279035.      3006.65   3230      0     0.928418     0.507820      2998.79      922.773
 215.6535      281858.      2822.15   3288      0     0.857728     0.499232      2820.21      952.300
 219.0231      284453.      2595.15   3322     22     0.776504     0.397028      2579.55      982.292
 222.3927      286884.      2431.84   3361     36     0.716534     0.363636      2408.27      1012.75
 225.7623      289161.      2276.94   3399     52     0.660803     0.345740      2246.07      1043.67
 229.1319      291304.      2142.67   3455     51     0.612624     0.322784      2116.61      1075.06
 232.5014      293327.      2022.52   3473     60     0.569828     0.305546      1979.01      1106.91
 235.8710      295216.      1889.24   3549     55     0.524620     0.289261      1861.88      1139.23
 239.2406      296999.      1783.33   3581     57     0.488188     0.272147      1748.20      1172.01
 242.6102      298701.      1701.51   3668     47     0.459272     0.255661      1684.61      1205.26
 245.9798      300304.      1603.02   3739     35     0.426720     0.244504      1595.51      1238.97
 249.3494      301846.      1542.68   3795      4     0.405070     0.231940      1537.24      1273.14
 252.7190      303328.      1481.81   3833      6     0.383864     0.226044      1471.35      1307.79
 256.0886      304750.      1421.87   3886     28     0.363458     0.220096      1412.40      1342.89
 259.4581      306126.      1375.71   3926     33     0.347065     0.222328      1362.58      1378.46
 262.8277      307444.      1318.53   3985     34     0.328344     0.207985      1308.45      1414.50
 266.1973      308729.      1284.37   4052     25     0.315764     0.200387      1279.47      1451.00
 269.5669      309991.      1262.33   4081     52     0.306441     0.227244      1250.58      1487.97
 272.9365      311148.      1157.30   4055    103     0.277455     0.183542      1125.08      1525.40
 276.3061      312257.      1108.86   4101    134     0.262580     0.176284      1076.84      1563.30
 279.6756      313341.      1083.48   4089    168     0.253461     0.176818      1036.40      1601.66
 283.0452      314374.      1033.22   4142    203     0.238807     0.166140      989.139      1640.49
 286.4148      315356.      981.776   4159    218     0.224233     0.153031      932.583      1679.78
 289.7844      316304.      948.814   4195    240     0.214169     0.152488      898.441      1719.53
 293.1540      317222.      917.680   4252    227     0.204746     0.148859      870.581      1759.76
 296.5236      318086.      864.124   4273    255     0.190595     0.146770      814.411      1800.44
 299.8932      318936.      849.348   4330    266     0.185218     0.153177      801.994      1841.59
 303.2628      319771.      834.898   4400    224     0.180034     0.146629      792.151      1883.21
 306.6323      320587.      816.494   4528    157     0.174119     0.146848      788.413      1925.29
 310.0019      321370.      782.683   4605    142     0.165084     0.144961      760.213      1967.84
 313.3715      322131.      761.257   4637    166     0.158830     0.144347      736.494      2010.85
 316.7411      322871.      740.505   4656    174     0.152847     0.137759      711.656      2054.33
 320.1107      323639.      767.124   4763    120     0.156667     0.146938      746.206      2098.27
 323.4803      324357.      717.974   4805    142     0.145092     0.144477      697.168      2142.68
 326.8499      325074.      717.654   4839    179     0.143527     0.152258      694.525      2187.55
 330.2194      325771.      696.380   4917    131     0.137843     0.145137      677.776      2232.88
 333.5890      326485.      714.179   5064     37     0.139929     0.148732      708.603      2278.69
 336.9586      327183.      698.312   5155      5     0.135447     0.156955      698.231      2324.95
 340.3282      327856.      672.542   5178     35     0.129150     0.148521      668.738      2371.68
 343.6978      328498.      642.142   5211     45     0.122098     0.136698      636.253      2418.88
 347.0674      329138.      640.041   5244     56     0.120511     0.132397      631.962      2466.54
 350.4370      329758.      620.387   5332     37     0.115681     0.134015      616.809      2514.67
 353.8065      330363.      605.125   5407     20     0.111756     0.130737      604.267      2563.26
 357.1761      330968.      604.471   5431     41     0.110577     0.133254      600.542      2612.32
 360.5457      331588.      620.188   5439     57     0.112387     0.151796      611.275      2661.84
 363.9153      332214.      626.432   5557     43     0.112463     0.170986      624.956      2711.82
 367.2849      332829.      614.602   5562     42     0.109321     0.154491      608.042      2762.28
 370.6544      333403.      573.708   5645     40     0.101116     0.135965      570.802      2813.19
 374.0241      333951.      548.437   5683     40    0.0957863     0.131076      544.354      2864.57
 377.3936      334494.      542.952   5745     33    0.0939788     0.128757      539.908      2916.42
 380.7632      335031.      537.302   5801     15    0.0921736     0.128558      534.699      2968.73
 384.1328      335568.      536.686   5883      1    0.0912573     0.133078      536.867      3021.51
 387.5024      336184.      616.183   5914      0     0.103860     0.333656      614.227      3074.75
 390.8720      336858.      674.050   5999      0     0.112629     0.426046      675.662      3128.46
 394.2416      337420.      561.951   6029     26    0.0930928     0.168863      561.256      3182.63
 397.6112      337958.      538.076   5954    128    0.0883783     0.170280      526.205      3237.26
 400.9807      338453.      494.828   5978    145    0.0805896     0.146859      481.765      3292.36
 404.3503      338942.      489.208   6060    117    0.0790079     0.132963      478.788      3347.93
 407.7199      339466.      523.589   6176     75    0.0838575     0.175535      517.904      3403.96
 411.0895      339927.      461.442   6276     34    0.0732967     0.133583      460.010      3460.46
 414.4591      340384.      456.134   6302     25    0.0718613     0.133134      452.870      3517.42
 417.8287      340841.      457.644   6425      2    0.0715166     0.130104      459.494      3574.85
 421.1982      341294.      452.539   6456      0    0.0701502     0.131924      452.889      3632.74
 424.5678      341713.      419.110   6484      0    0.0644503     0.132278      417.896      3691.09
 427.9374      342153.      440.066   6561      0    0.0671386     0.147148      440.496      3749.92
 431.3070      342604.      451.415   6603      4    0.0683292     0.160880      451.178      3809.20
 434.6766      343042.      437.244   6639     26    0.0656694     0.153090      435.979      3868.95
 438.0462      343466.      424.524   6697     42    0.0632663     0.128884      423.695      3929.17
 441.4158      343947.      481.272   6694     49    0.0711744     0.270963      476.442      3989.85
 444.7854      344448.      501.038   6756     54    0.0735339     0.377412      496.795      4051.00
 448.1550      344827.      378.615   6795     67    0.0551473     0.130533      374.726      4112.61
 451.5245      345208.      380.922   6824     83    0.0550678     0.127195      375.783      4174.68
 454.8941      345589.      381.226   6885     83    0.0547014     0.128937      376.619      4237.22
 458.2637      345940.      350.897   6964     71    0.0499788     0.126939      348.052      4300.23
 461.6333      346304.      363.666   7026     57    0.0514175     0.124965      361.260      4363.70
 465.0029      346670.      365.889   7040     80    0.0513554     0.144141      361.542      4427.64
 468.3725      347032.      362.120   7054    103    0.0504599     0.139894      355.944      4492.04
 471.7421      347375.      343.294   7065    139    0.0474932     0.123883      335.540      4556.91
 475.1116      347707.      332.344   7155    145    0.0456516     0.123667      326.637      4622.24
 478.4812      348042.      334.670   7218     94    0.0456460     0.129590      329.473      4688.03
 481.8508      348395.      352.983   7314     79    0.0478058     0.142074      349.651      4754.29
 485.2204      348728.      333.046   7365     85    0.0447915     0.131124      329.889      4821.02
 488.5900      349049.      321.118   7373    105    0.0428880     0.143474      316.214      4888.21
 491.9596      349385.      335.668   7438    111    0.0445239     0.132241      331.168      4955.87
 495.3292      349690.      304.859   7416    148    0.0401606     0.145940      297.831      5023.99
 498.6988      350003.      313.131   7490    180    0.0409712     0.182396      306.875      5092.57
 502.0683      350363.      360.439   7498    200    0.0468436     0.308051      351.233      5161.63
 505.4379      350677.      313.758   7548    207    0.0405034     0.142915      305.719      5231.14
 508.8075      350939.      262.434   7578    201    0.0336533     0.127720      255.025      5301.12
 512.1771      351180.      240.582   7688    172    0.0306472     0.129205      235.616      5371.57
 515.5467      351443.      263.138   7776    125    0.0333010     0.143419      258.949      5442.48
 518.9163      351705.      261.743   7837    141    0.0329088     0.146275      257.906      5513.86
 522.2858      351923.      218.461   7800    191    0.0272888     0.126351      212.853      5585.70
 525.6555      352168.      244.358   7864    203    0.0303279     0.130385      238.498      5658.00
 529.0250      352389.      221.539   7891    203    0.0273196     0.146184      215.579      5730.77
 532.3946      352631.      241.352   7932    242    0.0295744     0.141300      234.584      5804.01
 535.7642      352852.      221.526   7923    257    0.0269736     0.135383      213.712      5877.71
 539.1338      353147.      294.525   8037    237    0.0356369     0.159862      286.413      5951.88
 542.5034      353418.      271.532   8110    220    0.0326506     0.167416      264.796      6026.51
 545.8730      353681.      263.018   8168    213    0.0314304     0.139018      256.724      6101.60
 549.2426      353937.      256.032   8196    195    0.0304079     0.139875      249.223      6177.16
 552.6121      354140.      202.724   8288    175    0.0239290     0.129822      198.323      6253.19
 555.9817      354347.      207.086   8403    147    0.0242958     0.160608      204.157      6329.68
 559.3513      354536.      188.473   8414    123    0.0219783     0.171937      184.926      6406.64
 562.7209      354721.      185.745   8505    126    0.0215300     0.125967      183.113      6484.06
 567.8530      354999.      277.359  13062    202    0.0209493     0.136277      273.640      6602.87
 571.2226      355174.      175.583   8616    133    0.0200485     0.148977      172.738      6681.46
 574.7607      355341.      166.890   9130    107    0.0180390     0.124515      164.696      6764.49
 578.4756      355515.      173.711   9653    161    0.0177694     0.126169      171.528      6852.21
 582.3763      355753.      238.085  10152    171    0.0230431     0.151383      233.933      6944.94
 586.4721      355926.      173.539  10748    178    0.0158868     0.134693      170.751      7042.97
 590.7726      356080.      153.323  11334    231    0.0132721     0.123982      150.426      7146.63
 595.2882      356223.      142.750  11989    216    0.0116811     0.126782      140.045      7256.30
 600.0296      356412.      188.941  12790    136    0.0146105     0.141112      186.868      7372.35
 605.0079      356559.      147.099  13575    106    0.0107460     0.123770      145.877      7495.20
 610.2353      356773.      214.758  14361    120    0.0148160     0.128745      212.773      7625.27
 615.7240      356943.      169.437  15293     85    0.0110354     0.126073      168.764      7763.06
 621.4871      357151.      208.362  16235     32    0.0128068     0.124365      207.918      7909.06
 627.5385      357454.      302.656  17270      1    0.0175491     0.228045      303.072      8063.83
 633.8923      357690.      236.051  18218     60    0.0129071     0.127957      235.142      8227.95
 640.5638      357983.      293.514  19079    325    0.0151288     0.133736      288.643      8402.06
 647.5689      358257.      273.835  19974    603    0.0132996     0.130963      265.646      8586.83
 654.9244      358577.      319.890  21356    506    0.0146333     0.149292      312.508      8783.00
 662.6475      358910.      332.664  23013    179    0.0143273     0.138698      329.713      8991.37
 670.7568      359229.      319.433  24303    401    0.0129467     0.157433      314.643      9212.79
 679.2715      359493.      264.223  25585    654    0.0100735     0.128953      257.731      9448.17
 688.2121      359786.      293.044  27226    670    0.0105044     0.130296      285.993      9698.52
