# All data in this file is centered around the brightness peak.

# FILENAME = J1001-06_R_ss.fits / Image file name
# PIXSIZE =      0.432215 / Pixel size [arcsec]
# FLUX_UNITS = erg/cm^2/Angstrom/sec / Flux units
# FLUX_SCALE =    5.4843119e-19 / Flux scale [above units / (DN/sec)]
# FLUXCAL =    1 / Flux calibration complete?
# PROFTYPE = brightness / Profile type (isophote/brightness/other)
# NUMGALS =        1 / Number of sources in image
#
# GALINDEX =        1 / Source index (1 - N)
# XCENTER =       1322.00 / X(center) [pixels]
# YCENTER =       1300.00 / Y(center) [pixels]
# AXERAT =       1.13218 / Axial ratio (a/b)
# PA_IMAGE =       176.100 / Position angle, counterclockwise from Up [deg]
# PA =        176.05174 / Position angle, from N towards E [deg]
# SKYLEV =       3.62705 / Sky level [DN/sec]
# ERR_SKY_PIXEL =      0.104008 / Sky RMS (pixel-to-pixel) [DN/sec]
# ERR_SKY_BOX =    0.00340718 / Sky RMS (box-to-box) [DN/sec]
# FLUXRAD_S =       126.662 / Sky aperture radius [pixels]
# FLUXRAD_F =       123.779 / Flux aperture radius [pixels]
# FLUXRAD_C =       123.779 / Radius where SNR=3 [pixels]
# FLUX_S =        3716.0782 / Flux within sky aperture [DN/sec]
# FLUX_F =        3686.2543 / Flux within flux aperture [DN/sec]
# ERR_FLUX_S_SKY =       151.677 / Uncertainty in FLUX_S due to sky [DN/sec]
# ERR_FLUX_F_SKY =       144.851 / Uncertainty in FLUX_F due to sky [DN/sec]
# RE_F =        45.483978 / Flux aperture half-light radius [pixels]
# ERR_RE_F_SKY =        1.1721782 / Uncertainty in RE_F due to sky [pixels]
# SE_F =       0.28358845 / Face-on surface brightness within RE_F [DN/sec/pixel]
#  a[pix]  F(interior)     dF       N(good) N(bad) SurfBright  Sigma(SB)    dF(raw)  Sigma(F,sky)
# all Flux and Surface Brightness values are in [DN/sec]
   0.0000      0.00000      0.00000      1      0     0.789420      0.00000     0.789420      0.00000
   2.9889      18.2939      18.2939     20      0     0.737988     0.464963      14.7598    0.0844600
   5.9778      83.1614      64.8675     74      0     0.872267     0.778383      64.5478     0.337840
   8.9667      153.275      70.1138    122      0     0.565688     0.259970      69.0139     0.760140
  11.9556      238.513      85.2376    176      0     0.491221     0.166889      86.4549      1.35136
  14.9445      338.171      99.6583    226      0     0.446699     0.172286      100.954      2.11150
  17.9334      461.770      123.599    268      0     0.453279     0.201209      121.479      3.04056
  20.9223      598.541      136.771    328      0     0.424419     0.179452      139.209      4.13854
  23.9112      746.823      148.282    372      0     0.398785     0.188754      148.348      5.40544
  26.9001      895.724      148.901    418      0     0.353340     0.148743      147.696      6.84126
  29.8890      1052.85      157.127    474      0     0.333612     0.145655      158.132      8.44600
  32.8779      1220.12      167.272    526      0     0.321326     0.142182      169.018      10.2197
  35.8668      1379.20      159.075    566      0     0.279009     0.132636      157.919      12.1622
  38.8557      1529.38      150.186    624      0     0.242344     0.126333      151.223      14.2737
  41.8446      1668.71      139.327    658      0     0.208168     0.122767      136.975      16.5542
  44.8335      1808.77      140.062    728      0     0.194834     0.132366      141.839      19.0035
  47.8225      1937.26      128.489    772      0     0.167205     0.138916      129.082      21.6218
  50.8114      2067.39      130.130    810      0     0.159077     0.161780      128.852      24.4089
  53.8003      2188.11      120.715    876      0     0.139135     0.134696      121.882      27.3650
  56.7892      2300.65      112.549    918      0     0.122711     0.113443      112.649      30.4901
  59.7781      2402.80      102.145    956      0     0.105656     0.136034      101.007      33.7840
  62.7670      2504.74      101.940   1026      0     0.100301     0.125968      102.909      37.2468
  65.7559      2594.25      89.5117   1058      0    0.0839759     0.105077      88.8465      40.8786
  68.7448      2675.63      81.3746   1114      0    0.0729490     0.105532      81.2652      44.6793
  71.7337      2755.13      79.5053   1172      0    0.0682404     0.103498      79.9778      48.6490
  74.7226      2831.63      76.4958   1208      0    0.0629776     0.100880      76.0769      52.7875
  77.7115      2904.90      73.2717   1256      0    0.0579575    0.0977596      72.7946      57.0949
  80.7004      2979.15      74.2479   1330      0    0.0565135     0.101817      75.1629      61.5713
  83.6893      3064.28      85.1323   1352      0    0.0624418     0.150504      84.4213      66.2166
  86.6782      3144.09      79.8115   1418      0    0.0564851     0.119605      80.0958      71.0308
  89.6671      3208.36      64.2734   1463      5    0.0439464    0.0955902      64.2936      76.0140
  92.6560      3263.14      54.7765   1460     34    0.0362249    0.0998513      52.8884      81.1660
  95.6449      3315.58      52.4383   1535     43    0.0335777    0.0909555      51.5418      86.4870
  98.6338      3371.98      56.3975   1560     42    0.0350017    0.0932658      54.6027      91.9769
 101.6227      3418.79      46.8094   1626     40    0.0281840    0.0947393      45.8273      97.6357
 104.6116      3471.16      52.3726   1692     22    0.0306195    0.0997764      51.8082      103.463
 107.6005      3515.02      43.8592   1761      1    0.0249199    0.0977703      43.8839      109.460
 110.5894      3554.21      39.1902   1806      0    0.0216570    0.0936947      39.1126      115.626
 113.5783      3586.63      32.4271   1866      0    0.0174417    0.0957422      32.5463      121.960
 116.5672      3609.56      22.9295   1898      0    0.0120129    0.0916440      22.8005      128.464
 119.5561      3640.59      31.0238   1960      0    0.0158421    0.0913301      31.0505      135.136
 122.5450      3673.47      32.8781   2028      0    0.0163744    0.0946548      33.2072      141.977
 126.6620      3716.08      42.6120   2803     11    0.0149679    0.0933431      41.9551      151.677
 129.6509      3754.57      38.4900   2111     37    0.0181064    0.0995271      38.2227      158.920
 132.7892      3806.50      51.9325   2246     34    0.0227236     0.131772      51.0371      166.707
 136.0845      3825.24      18.7376   2438     32   0.00762152     0.101977      18.5813      175.083
 139.5446      3846.73      21.4958   2624     18   0.00812299    0.0931297      21.3147      184.100
 143.1776      3876.53      29.7984   2840      0    0.0104552    0.0936667      29.6928      193.810
 146.9923      3903.07      26.5376   3056      0   0.00864009    0.0966908      26.4041      204.275
 150.9977      3929.26      26.1877   3318      0   0.00790708    0.0970993      26.2357      215.560
 155.2034      3952.32      23.0634   3600      0   0.00645429    0.0981015      23.2354      227.735
