# All data in this file is centered around the brightness peak.

# FILENAME = J1109-23_R_ss.fits / Image file name
# PIXSIZE =      0.432215 / Pixel size [arcsec]
# FLUX_UNITS = erg/cm^2/Angstrom/sec / Flux units
# FLUX_SCALE =    4.6312542e-19 / Flux scale [above units / (DN/sec)]
# FLUXCAL =    1 / Flux calibration complete?
# PROFTYPE = brightness / Profile type (isophote/brightness/other)
# NUMGALS =        1 / Number of sources in image
#
# GALINDEX =        1 / Source index (1 - N)
# XCENTER =       987.555 / X(center) [pixels]
# YCENTER =       1083.82 / Y(center) [pixels]
# AXERAT =       1.10147 / Axial ratio (a/b)
# PA_IMAGE =       73.4479 / Position angle, counterclockwise from Up [deg]
# PA =        73.417466 / Position angle, from N towards E [deg]
# SKYLEV =       3.48152 / Sky level [DN/sec]
# ERR_SKY_PIXEL =      0.109507 / Sky RMS (pixel-to-pixel) [DN/sec]
# ERR_SKY_BOX =    0.00231425 / Sky RMS (box-to-box) [DN/sec]
# FLUXRAD_S =       298.552 / Sky aperture radius [pixels]
# FLUXRAD_F =       298.552 / Flux aperture radius [pixels]
# FLUXRAD_C =      -999.000 / Radius where SNR=3 [pixels]
# FLUX_S =        121645.40 / Flux within sky aperture [DN/sec]
# FLUX_F =        121645.40 / Flux within flux aperture [DN/sec]
# FLUX_T =        121646.87 / Total flux [DN/sec]
# ERR_FLUX_S_SKY =       588.336 / Uncertainty in FLUX_S due to sky [DN/sec]
# ERR_FLUX_F_SKY =       588.336 / Uncertainty in FLUX_F due to sky [DN/sec]
# ERR_FLUX_T_SKY =        588.44970 / Uncertainty in FLUX_T due to sky [DN/sec]
# RE_F =        72.665377 / Flux aperture half-light radius [pixels]
# RE_T =        72.666184 / Total flux half-light radius [pixels]
# ERR_RE_F_SKY =       0.27358718 / Uncertainty in RE_F due to sky [pixels]
# ERR_RE_T_SKY =       0.27364857 / Uncertainty in RE_T due to sky [pixels]
# SE_F =        3.6665764 / Face-on surface brightness within RE_F [DN/sec/pixel]
# SE_T =        3.6665392 / Face-on surface brightness within RE_T [DN/sec/pixel]
#  a[pix]  F(interior)     dF       N(good) N(bad) SurfBright  Sigma(SB)    dF(raw)  Sigma(F,sky)
# all Flux and Surface Brightness values are in [DN/sec]
   0.0000      0.00000      0.00000      0      0      0.00000      0.00000      0.00000      0.00000
   2.9938      1441.16      1441.16     26      0      56.3750      12.7850      1465.75    0.0591608
   5.9876      3804.50      2363.34     78      0      30.8163      13.5708      2403.67     0.236643
   8.9814      5676.56      1872.06    130      0      14.6462      5.19260      1904.01     0.532447
  11.9752      7424.20      1747.65    177      0      9.76633      1.76403      1728.64     0.946573
  14.9690      9222.62      1798.42    227      0      7.81670      1.01501      1774.39      1.47902
  17.9629      11063.3      1840.65    287      0      6.54565     0.767532      1878.60      2.12979
  20.9567      12983.3      1920.06    328      0      5.77758     0.634805      1895.05      2.89888
  23.9505      15031.6      2048.29    382      0      5.34166     0.542845      2040.51      3.78629
  26.9443      17282.4      2250.78    439      0      5.17916     0.677193      2273.65      4.79202
  29.9381      19659.9      2377.55    478      7      4.89499     0.840797      2339.80      5.91608
  32.9319      22090.9      2430.94    513     21      4.52824     0.804069      2322.99      7.15846
  35.9257      24681.1      2590.18    575     16      4.40532     0.975638      2533.06      8.51915
  38.9195      27429.4      2748.36    633      3      4.30040      1.19139      2722.15      9.99817
  41.9133      30412.2      2982.82    694      0      4.32154      1.56892      2999.15      11.5955
  44.9071      33529.7      3117.44    736      0      4.20509      2.12195      3094.95      13.3112
  47.9010      36651.3      3121.59    797      0      3.93904      1.80058      3139.41      15.1452
  50.8948      39725.2      3073.96    840      0      3.64384      1.39782      3060.82      17.0975
  53.8886      42728.0      3002.74    895      0      3.35602      1.23792      3003.64      19.1681
  56.8824      45725.5      2997.57    927     14      3.16915      1.21731      2937.80      21.3570
  59.8762      48656.7      2931.22    953     43      2.94008      1.03513      2801.90      23.6643
  62.8700      51565.9      2909.19    964     80      2.77564      1.01650      2675.72      26.0899
  65.8638      54411.4      2845.47   1010     94      2.58858     0.948629      2614.46      28.6338
  68.8576      57204.9      2793.47   1051     99      2.42833     0.917607      2552.17      31.2961
  71.8514      60034.1      2829.23   1121     70      2.35476      1.11556      2639.68      34.0766
  74.8452      62761.3      2727.22   1219     47      2.17721      1.10722      2654.02      36.9755
  77.8390      65321.0      2559.71   1265     39      1.96334     0.898208      2483.62      39.9927
  80.8329      67747.6      2426.53   1330     26      1.79096     0.815628      2381.98      43.1282
  83.8267      70026.1      2278.49   1389     12      1.62054     0.740679      2250.93      46.3821
  86.8205      72223.6      2197.55   1458      0      1.50813     0.743540      2198.86      49.7542
  89.8143      74332.0      2108.41   1504     16      1.39791     0.736087      2102.45      53.2447
  92.8081      76362.2      2030.16   1528     26      1.30190     0.673374      1989.30      56.8535
  95.8019      78369.4      2007.24   1587     28      1.24633     0.726381      1977.93      60.5807
  98.7957      80325.1      1955.71   1635     32      1.17697     0.635989      1924.35      64.4261
 101.7895      82236.3      1911.21   1664     44      1.11586     0.531377      1856.79      68.3899
 104.7833      84163.5      1927.20   1717     44      1.09258     0.576298      1875.96      72.4720
 107.7771      86017.2      1853.67   1767     49      1.02129     0.457136      1804.62      76.6724
 110.7710      87812.1      1794.85   1818     55     0.961793     0.440811      1748.54      80.9911
 113.7648      89546.8      1734.76   1825     76     0.904805     0.474910      1651.27      85.4282
 116.7586      91166.8      1620.01   1931     44     0.823003     0.345787      1589.22      89.9836
 119.7524      92716.2      1549.35   1972     49     0.767183     0.298390      1512.89      94.6573
 122.7462      94215.9      1499.75   1994     87     0.724282     0.279441      1444.22      99.4493
 125.7400      95637.4      1421.42   2010     93     0.669917     0.252574      1346.53      104.360
 128.7338      96975.4      1338.07   2121     56     0.615793     0.227122      1306.10      109.388
 131.7276      98233.5      1258.04   2228      9     0.565654     0.226217      1260.28      114.535
 134.7214      99425.6      1192.12   2274      0     0.523967     0.220192      1191.50      119.801
 137.7152      100566.      1139.99   2322      0     0.490042     0.226142      1137.88      125.184
 140.7090      101673.      1107.48   2358     16     0.465831     0.252349      1098.43      130.686
 143.7029      102716.      1042.61   2397     32     0.429312     0.233496      1029.06      136.306
 146.6967      103696.      979.973   2449     36     0.395201     0.216595      967.846      142.045
 149.6905      104622.      925.965   2491     35     0.365877     0.224921      911.401      147.902
 152.6843      105539.      917.432   2517     53     0.355327     0.245563      894.359      153.877
 155.6781      106388.      849.210   2569     65     0.322517     0.210344      828.547      159.971
 158.6719      107164.      776.174   2615     66     0.289165     0.180382      756.167      166.183
 161.6657      107888.      723.138   2705     42     0.264371     0.167092      715.122      172.513
 164.6595      108562.      674.063   2766      6     0.241908     0.151193      669.117      178.961
 167.6533      109203.      641.796   2827     13     0.226177     0.143330      639.402      185.528
 170.6471      109818.      614.168   2868     23     0.212611     0.142323      609.767      192.213
 173.6409      110399.      581.472   2908     24     0.197791     0.140085      575.176      199.017
 176.6348      110978.      578.640   2980     12     0.193463     0.140198      576.520      205.939
 179.6286      111525.      547.573   3041     11     0.179999     0.127912      547.378      212.979
 182.6224      112064.      539.209   3059     39     0.174320     0.126043      533.244      220.137
 185.6162      112579.      514.922   3081     54     0.163762     0.124019      504.550      227.414
 188.6100      113097.      517.943   3116     85     0.162087     0.122828      505.062      234.809
 191.6038      113593.      495.762   3129    129     0.152702     0.121885      477.805      242.323
 194.5976      114112.      518.885   3137    148     0.157347     0.137043      493.596      249.954
 197.5914      114604.      491.562   3212    141     0.146785     0.128101      471.474      257.704
 200.5852      115065.      461.774   3302    109     0.135817     0.118625      448.468      265.573
 203.5790      115520.      454.325   3374     79     0.131646     0.121133      444.175      273.560
 206.5728      115979.      459.822   3424     60     0.131294     0.129387      449.551      281.664
 209.5667      116446.      466.961   3513     42     0.131414     0.134783      461.657      289.888
 212.5605      116890.      443.363   3582     35     0.123003     0.130164      440.598      298.230
 215.5543      117287.      397.465   3608     37     0.108727     0.122696      392.286      306.690
 218.5481      117689.      401.628   3668     47     0.108351     0.114615      397.431      315.268
 221.5419      118058.      368.929   3706     55    0.0981748     0.111008      363.836      323.964
 224.5357      118401.      343.320   3752     56    0.0901341     0.109895      338.183      332.779
 227.5295      118723.      321.966   3810     63    0.0834081     0.108324      317.785      341.713
 230.5233      119042.      319.139   3852     48    0.0815950     0.119223      314.304      350.764
 233.5171      119331.      288.864   3901     63    0.0729017     0.109462      284.389      359.934
 236.5109      119561.      229.479   3905    111    0.0571767    0.0979294      223.275      369.223
 239.5048      119771.      210.326   3922    141    0.0517455    0.0941289      202.946      378.629
 242.4986      119968.      196.822   3958    155    0.0478216     0.101309      189.278      388.154
 245.4924      120163.      194.955   4019    133    0.0467867    0.0991058      188.036      397.797
 248.4862      120320.      157.583   4127    106    0.0373596    0.0937626      154.183      407.559
 251.4800      120471.      150.639   4203     67    0.0352854    0.0965561      148.304      417.439
 254.4738      120595.      124.199   4277     39    0.0287480    0.0921612      122.955      427.437
 257.4676      120703.      107.804   4329     31    0.0246613    0.0937847      106.759      437.553
 260.4614      120809.      106.530   4393     38    0.0240880    0.0932323      105.819      447.788
 263.4552      120899.      89.2017   4424     48    0.0199393    0.0931705      88.2115      458.141
 266.4490      121000.      101.603   4455     54    0.0224549     0.145870      100.036      468.613
 269.4428      121107.      107.037   4478    104    0.0233915     0.218544      104.747      479.202
 272.4367      121194.      87.0140   4503    127    0.0188056    0.0954722      84.6815      489.911
 275.4305      121262.      68.0132   4563    107    0.0145384    0.0950044      66.3388      500.737
 278.4243      121317.      54.9624   4688     54    0.0116217    0.0893180      54.4826      511.682
 281.4181      121374.      56.7931   4698     62    0.0118804    0.0911643      55.8139      522.745
 284.4119      121425.      50.9956   4799     61    0.0105547    0.0939445      50.6522      533.926
 287.4057      121471.      46.0036   4804     59   0.00942180    0.0914265      45.2623      545.226
 290.3995      121501.      29.9207   4867     78   0.00606443    0.0923686      29.5156      556.644
 293.3933      121551.      50.1933   4877    109    0.0100690     0.100709      49.1065      568.180
 298.5520      121645.      94.2253   8538    163    0.0108186    0.0999971      92.3694      588.336
 301.5458      121694.      48.7555   5078     33   0.00951480    0.0922131      48.3162      600.195
 304.6893      121750.      56.3407   5422     20    0.0103655    0.0964436      56.2020      612.774
 307.9900      121833.      82.5565   5725     64    0.0143133     0.118299      81.9438      626.122
 311.4557      121892.      59.0982   6034     88   0.00965171    0.0932660      58.2384      640.292
 315.0947      121932.      39.7984   6416     84   0.00612001    0.0947840      39.2660      655.342
 318.9156      121979.      46.6051   6815     91   0.00674508    0.0913329      45.9678      671.332
 322.9276      122032.      53.0110   7221    123   0.00721779    0.0960462      52.1197      688.329
 327.1402      122075.      43.1931   7646    178   0.00553007    0.0933898      42.2829      706.405
 331.5634      122135.      60.6426   8143    164   0.00729749    0.0905841      59.4234      725.636
 336.2078      122214.      78.6835   8664    194   0.00889515    0.0973779      77.0676      746.107
 341.0844      122288.      73.8907   9161    248   0.00784368    0.0922378      71.8560      767.908
 346.2048      122321.      32.9621   9773    260   0.00328393    0.0914557      32.0938      791.137
 351.5813      122372.      51.4850  10353    352   0.00481155    0.0914719      49.8140      815.901
 357.2266      122451.      79.0011  11015    402   0.00692219    0.0934431      76.2480      842.312
 363.1541      122552.      100.375  11871    286   0.00824167    0.0948736      97.8369      870.497
