# All data in this file is centered around the brightness peak.

# FILENAME = J1200-01_R_ss.fits / Image file name
# PIXSIZE =      0.432087 / Pixel size [arcsec]
# FLUX_UNITS = erg/cm^2/Angstrom/sec / Flux units
# FLUX_SCALE =    5.8783388e-19 / Flux scale [above units / (DN/sec)]
# FLUXCAL =    1 / Flux calibration complete?
# PROFTYPE = brightness / Profile type (isophote/brightness/other)
# NUMGALS =        1 / Number of sources in image
#
# GALINDEX =        1 / Source index (1 - N)
# XCENTER =       1078.00 / X(center) [pixels]
# YCENTER =       1096.00 / Y(center) [pixels]
# AXERAT =       1.38871 / Axial ratio (a/b)
# PA_IMAGE =       24.2200 / Position angle, counterclockwise from Up [deg]
# PA =        24.118400 / Position angle, from N towards E [deg]
# SKYLEV =       4.26698 / Sky level [DN/sec]
# ERR_SKY_PIXEL =      0.114424 / Sky RMS (pixel-to-pixel) [DN/sec]
# ERR_SKY_BOX =    0.00250009 / Sky RMS (box-to-box) [DN/sec]
# FLUXRAD_S =       644.100 / Sky aperture radius [pixels]
# FLUXRAD_F =       644.100 / Flux aperture radius [pixels]
# FLUXRAD_C =      -999.000 / Radius where SNR=3 [pixels]
# FLUX_S =        447904.79 / Flux within sky aperture [DN/sec]
# FLUX_F =        447904.79 / Flux within flux aperture [DN/sec]
# ERR_FLUX_S_SKY =       2346.40 / Uncertainty in FLUX_S due to sky [DN/sec]
# ERR_FLUX_F_SKY =       2346.40 / Uncertainty in FLUX_F due to sky [DN/sec]
# RE_F =        87.975858 / Flux aperture half-light radius [pixels]
# ERR_RE_F_SKY =       0.57854029 / Uncertainty in RE_F due to sky [pixels]
# SE_F =        9.2104067 / Face-on surface brightness within RE_F [DN/sec/pixel]
#  a[pix]  F(interior)     dF       N(good) N(bad) SurfBright  Sigma(SB)    dF(raw)  Sigma(F,sky)
# all Flux and Surface Brightness values are in [DN/sec]
   0.0000      0.00000      0.00000      1      0      53.2341      0.00000      53.2341      0.00000
   4.0015      1967.97      1967.97     36      0      54.3283      9.97710      1955.82    0.0905624
   8.0031      8059.98      6092.01    108      0      56.0593      22.5322      6054.41     0.362250
  12.0046      18053.4      9993.44    184      0      55.1764      35.7649      10152.5     0.815062
  16.0061      29754.5      11701.0    254      0      46.1460      29.0383      11721.1      1.44900
  20.0077      41888.4      12134.0    330      0      37.2193      16.8784      12282.4      2.26406
  24.0092      53841.9      11953.5    388      0      29.9992      11.0059      11639.7      3.26025
  28.0107      66032.3      12190.4    474      0      25.8870      8.79707      12270.4      4.43756
  32.0123      78176.5      12144.3    546      0      22.3506      7.83430      12203.4      5.79600
  36.0138      90248.7      12072.2    608      0      19.6040      7.05153      11919.2      7.33556
  40.0153      102567.      12318.4    692      0      17.8982      5.86093      12385.5      9.05624
  44.0169      114299.      11732.4    764      0      15.4232      4.86659      11783.3      10.9581
  48.0184      125468.      11168.2    830      0      13.4050      4.01619      11126.1      13.0410
  52.0200      136613.      11145.4    904      0      12.3073      3.51779      11125.8      15.3051
  56.0215      148070.      11457.2    990      0      11.7145      3.34515      11597.3      17.7502
  60.0230      158934.      10863.4   1050      0      10.3413      2.94992      10858.4      20.3766
  64.0246      169130.      10196.1   1120      0      9.07990      2.70887      10169.5      23.1840
  68.0261      179243.      10112.7   1194      0      8.45983      2.49514      10101.0      26.1725
  72.0276      189603.      10360.5   1250      2      8.17189      4.81481      10214.9      29.3422
  76.0292      199390.      9786.72   1327      1      7.30203      4.25551      9689.79      32.6930
  80.0307      208019.      8629.53   1422      0      6.10845      1.59642      8686.21      36.2250
  84.0322      216132.      8113.11   1504      0      5.46275      1.32637      8215.97      39.9380
  88.0338      223888.      7755.14   1552      0      4.97886      1.32632      7727.19      43.8322
  92.0353      231337.      7449.37   1648      0      4.57000      1.31838      7531.36      47.9075
  96.0368      238533.      7195.62   1690      0      4.22647      1.11136      7142.74      52.1640
 100.0384      245522.      6989.27   1774      0      3.93772     0.876391      6985.51      56.6015
 104.0399      252393.      6871.61   1842      0      3.71960     0.738482      6851.50      61.2202
 108.0414      259038.      6645.05   1926      0      3.46123     0.698444      6666.33      66.0200
 112.0430      265452.      6413.04   1998      0      3.21892     0.721049      6431.39      71.0010
 116.0445      271458.      6006.25   2048      0      2.90896     0.714260      5957.54      76.1630
 120.0461      277154.      5696.03   2142      0      2.66519     0.709222      5708.83      81.5062
 124.0476      282732.      5578.25   2198      0      2.52451     0.708682      5548.87      87.0305
 128.0491      288245.      5513.41   2302      0      2.41595     0.738775      5561.51      92.7359
 132.0506      293694.      5448.22   2350      0      2.31393     0.764019      5437.73      98.6225
 136.0522      299190.      5496.63   2436      0      2.26480     0.972720      5517.04      104.690
 140.0537      304892.      5701.53   2463     37      2.28114      1.47006      5618.44      110.939
 144.0553      310306.      5414.15   2508     56      2.10514     0.981828      5279.69      117.369
 148.0568      315496.      5189.84   2562     72      1.96263     0.663846      5028.26      123.980
 152.0583      320584.      5087.97   2644     72      1.87280     0.760740      4951.69      130.772
 156.0599      325586.      5002.59   2712     72      1.79354     0.986159      4864.09      137.745
 160.0614      330320.      4733.67   2795     67      1.65417     0.439278      4623.40      144.900
 164.0629      334921.      4600.78   2896     60      1.56803     0.393443      4541.02      152.235
 168.0645      339354.      4433.20   2961     37      1.47451     0.351850      4366.01      159.752
 172.0660      343573.      4219.41   3078      0      1.37038     0.360594      4218.03      167.450
 176.0675      347611.      4037.26   3152      0      1.28108     0.382752      4037.96      175.329
 180.0691      351532.      3921.72   3222      0      1.21645     0.395683      3919.41      183.389
 184.0706      355433.      3900.88   3318      0      1.18340     0.405007      3926.51      191.630
 188.0721      359261.      3827.95   3364      0      1.13629     0.364956      3822.48      200.052
 192.0737      362953.      3692.15   3409     25      1.07292     0.336862      3657.57      208.656
 196.0752      366434.      3480.34   3446     32     0.990508     0.291952      3413.29      217.440
 200.0767      369681.      3247.62   3576     36     0.905604     0.269551      3238.44      226.406
 204.0783      372688.      3006.89   3617     27     0.821869     0.233307      2972.70      235.553
 208.0798      375502.      2813.27   3727     29     0.754019     0.204133      2810.23      244.881
 212.0813      378205.      2703.19   3756     54     0.710716     0.207340      2669.45      254.390
 216.0829      380822.      2617.53   3809     77     0.675330     0.216877      2572.33      264.080
 220.0844      383347.      2524.37   3807    101     0.639342     0.224645      2433.98      273.951
 224.0860      385760.      2413.53   3917    123     0.600259     0.209148      2351.21      284.004
 228.0875      388069.      2308.75   3956    140     0.564036     0.200643      2231.33      294.237
 232.0890      390302.      2232.67   3983    163     0.535963     0.208995      2134.74      304.652
 236.0905      392473.      2171.11   4024    230     0.512276     0.214927      2061.40      315.248
 240.0921      394574.      2100.92   4033    271     0.487382     0.213456      1965.61      326.025
 244.0936      396587.      2013.89   4084    280     0.459472     0.200334      1876.49      336.983
 248.0952      398540.      1952.29   4225    245     0.438176     0.176181      1851.29      348.122
 252.0967      400428.      1888.26   4368    194     0.417022     0.178346      1821.55      359.442
 256.0982      402263.      1835.41   4435    159     0.398967     0.159997      1769.42      370.944
 260.0998      404000.      1736.85   4556    118     0.371690     0.145516      1693.42      382.626
 264.1013      405635.      1635.17   4618    110     0.344588     0.137745      1591.31      394.490
 268.1028      407206.      1570.55   4683    131     0.325993     0.136006      1526.62      406.535
 272.1044      408694.      1487.61   4779     91     0.304201     0.144665      1453.78      418.761
 276.1059      410105.      1411.17   4812    162     0.284360     0.140901      1368.34      431.168
 280.1075      411429.      1324.62   4829    203     0.263078     0.137155      1270.40      443.756
 284.1090      412675.      1245.41   4900    194     0.243838     0.126041      1194.81      456.525
 288.1105      413866.      1191.47   4981    223     0.230014     0.124760      1145.70      469.476
 292.1121      415041.      1174.60   4953    303     0.223630     0.154331      1107.64      482.607
 296.1136      416121.      1080.43   4991    333     0.202903     0.122050      1012.69      495.920
 300.1151      417125.      1003.72   5081    307     0.185967     0.116936      944.899      509.414
 304.1166      418087.      962.163   5233    257     0.175906     0.118964      920.515      523.089
 308.1182      419003.      916.151   5264    256     0.165304     0.114493      870.158      536.945
 312.1197      419892.      888.377   5333    289     0.158225     0.114694      843.813      550.982
 316.1212      420758.      866.308   5386    304     0.152328     0.129527      820.441      565.200
 320.1228      421608.      849.683   5421    319     0.147526     0.133383      799.738      579.600
 324.1243      422413.      805.667   5553    281     0.138146     0.120906      767.126      594.180
 328.1259      423199.      786.020   5729    211     0.133123     0.117805      762.664      608.942
 332.1274      423937.      737.338   5804    190     0.123365     0.117085      716.009      623.885
 336.1289      424661.      724.635   5857    177     0.119786     0.125735      701.589      639.009
 340.1305      425384.      722.316   5958    150     0.117991     0.122955      702.992      654.314
 344.1320      426070.      686.548   6052    152     0.110836     0.117595      670.781      669.800
 348.1335      426736.      665.614   6156    104     0.106215     0.112159      653.860      685.467
 352.1351      427386.      649.716   6226     84     0.102493     0.115080      638.121      701.316
 356.1366      428001.      615.699   6314    122    0.0960293     0.116764      606.329      717.345
 360.1381      428596.      594.356   6351    119    0.0916648     0.110326      582.163      733.556
 364.1396      429157.      561.835   6433    121    0.0856918     0.108330      551.255      749.948
 368.1412      429691.      533.320   6471    173    0.0804538     0.107332      520.616      766.520
 372.1428      430233.      541.762   6444    264    0.0808427     0.106473      520.950      783.275
 376.1443      430766.      533.702   6472    296    0.0787890     0.115987      509.922      800.210
 380.1458      431275.      508.983   6515    335    0.0743450     0.127599      484.358      817.326
 384.1473      431757.      481.636   6592    330    0.0696136     0.117282      458.893      834.623
 388.1489      432241.      483.755   6739    245    0.0691951     0.108500      466.306      852.102
 392.1504      432691.      450.156   6888    144    0.0637291     0.108492      438.966      869.762
 396.1519      433122.      431.088   7035    109    0.0604100     0.107127      424.985      887.603
 400.1535      433534.      412.409   7155     79    0.0572114     0.105114      409.348      905.625
 404.1550      433947.      412.933   7165     77    0.0567138     0.105596      406.354      923.828
 408.1566      434366.      419.117   7346     56    0.0569964     0.110297      418.695      942.212
 412.1581      434752.      385.920   7381     41    0.0519699     0.106320      383.590      960.777
 416.1596      435120.      367.892   7440     48    0.0490635     0.104624      365.033      979.523
 420.1612      435477.      357.345   7509     79    0.0472007     0.114628      354.430      998.451
 424.1627      435883.      405.624   7505    149    0.0530702     0.123205      398.292      1017.56
 428.1642      436262.      378.660   7553    143    0.0490770     0.122467      370.679      1036.85
 432.1657      436585.      323.297   7726     80    0.0415118     0.106128      320.720      1056.32
 436.1673      436928.      342.956   7828     16    0.0436302     0.113186      341.537      1075.97
 440.1689      437267.      339.202   7856     46    0.0427582     0.109835      335.908      1095.81
 444.1704      437565.      297.727   7879    105    0.0371908     0.106161      293.026      1115.82
 448.1719      437855.      290.509   8011    111    0.0359637     0.110901      288.105      1136.02
 452.1734      438152.      296.192   8045    105    0.0363412     0.110809      292.365      1156.39
 456.1750      438448.      296.831   8179     63    0.0360989     0.108843      295.253      1176.95
 460.1765      438721.      272.930   8257     59    0.0329020     0.101854      271.672      1197.69
 464.1780      439001.      279.688   8281     43    0.0334250     0.112407      276.792      1218.61
 468.1796      439266.      264.827   8424      4    0.0313772     0.116075      264.322      1239.71
 472.1811      439519.      253.439   8505     39    0.0297723     0.104910      253.214      1260.99
 476.1826      439757.      237.318   8502     74    0.0276431     0.103084      235.022      1282.45
 480.1842      439995.      238.489   8544    100    0.0275473     0.103488      235.364      1304.10
 484.1857      440268.      273.225   8643     81    0.0312977     0.117222      270.506      1325.93
 488.1873      440553.      284.589   8713     67    0.0323311     0.114534      281.701      1347.93
 492.1888      440782.      228.754   8813     79    0.0257758     0.102865      227.162      1370.12
 496.1903      440990.      207.967   8906     78    0.0232438     0.102641      207.009      1392.49
 500.1918      441211.      221.789   8955     65    0.0245895     0.107479      220.199      1415.04
 504.1934      441440.      228.168   9062     38    0.0250950     0.106823      227.411      1437.77
 508.1949      441657.      217.206   9097     37    0.0237007     0.104262      215.605      1460.68
 512.1965      441862.      205.254   9226      6    0.0222206     0.103685      205.008      1483.78
 516.1980      442060.      198.007   9302      0    0.0212693     0.104273      197.847      1507.05
 520.1995      442275.      215.366   9382      0    0.0229555     0.102756      215.369      1530.51
 524.2010      442486.      210.469   9419     39    0.0222616     0.104783      209.682      1554.14
 528.2026      442700.      214.350   9405    101    0.0224996     0.106214      211.609      1577.96
 532.2041      442893.      193.152   9512    124    0.0201216     0.102742      191.396      1601.96
 536.2056      443093.      199.179   9529    123    0.0205940     0.102832      196.240      1626.14
 540.2072      443312.      219.340   9630    140    0.0225099     0.109389      216.771      1650.50
 544.2087      443541.      228.675   9618    180    0.0232945     0.108389      224.046      1675.04
 548.2103      443763.      222.328   9680    220    0.0224823     0.111484      217.629      1699.77
 552.2118      443951.      188.299   9700    268    0.0189028     0.107339      183.357      1724.67
 556.2133      444149.      197.574   9800    256    0.0196906     0.103590      192.967      1749.76
 560.2149      444328.      178.814   9852    196    0.0176933     0.103675      174.314      1775.02
 564.2164      444496.      168.351  10041    153    0.0165394     0.102669      166.072      1800.47
 568.2180      444651.      154.529  10147     89    0.0150741     0.103954      152.957      1826.10
 572.2195      444849.      197.985  10332     12    0.0191776     0.105354      198.143      1851.91
 576.2210      445018.      169.569  10400     16    0.0163108     0.104736      169.632      1877.90
 580.2226      445182.      163.474  10404     66    0.0156155     0.104709      162.463      1904.08
 584.2241      445356.      174.315  10386    124    0.0165368     0.104277      171.751      1930.43
 588.2256      445561.      205.431  10479    129    0.0193556     0.109519      202.828      1956.96
 592.2272      445765.      203.224  10543    173    0.0190179     0.112444      200.506      1983.68
 596.2287      445942.      177.203  10542    220    0.0164712     0.105963      173.639      2010.58
 600.2302      446126.      183.902  10579    221    0.0169795     0.108673      179.626      2037.66
 604.2318      446278.      152.186  10758    178    0.0139577     0.109583      150.157      2064.91
 608.2333      446430.      151.871  10795    137    0.0138370     0.104144      149.370      2092.35
 612.2348      446573.      143.259  10907    151    0.0129667     0.102840      141.428      2119.98
 616.2364      446718.      145.199  11019    123    0.0130566     0.104516      143.870      2147.78
 620.2379      446873.      155.121  11038    198    0.0138586     0.105143      152.972      2175.76
 624.2394      447058.      185.031  10947    285    0.0164246     0.117129      179.800      2203.93
 628.2410      447233.      174.867  11073    301    0.0154231     0.110564      170.780      2232.27
 632.2425      447383.      150.180  11099    279    0.0131617     0.105691      146.081      2260.80
 636.2440      447551.      167.245  11264    200    0.0145648     0.107856      164.057      2289.51
 644.1000      447905.      354.182  22550    202    0.0155655     0.126408      351.002      2346.40
 648.1015      448056.      151.082  11654     50    0.0129156     0.110673      150.519      2375.64
 652.3032      448229.      173.549  12272     98    0.0140406     0.114435      172.306      2406.54
 656.7148      448386.      156.127  12946    120    0.0119506     0.119016      154.712      2439.21
 661.3470      448502.      115.975  13559    209   0.00839656     0.102822      113.849      2473.74
 666.2110      448613.      111.277  14417    213   0.00761768     0.102531      109.824      2510.26
 671.3181      448760.      147.487  15221    223   0.00954426     0.104553      145.273      2548.89
 676.6805      448901.      140.864  16177    183   0.00861418     0.105110      139.352      2589.78
 682.3110      449034.      132.844  17211    139   0.00767423     0.105721      132.081      2633.05
 688.2231      449199.      165.218  18153    121   0.00901330     0.106673      163.618      2678.88
 694.4308      449349.      149.666  19367     95   0.00770808     0.102315      149.282      2727.43
 700.9489      449569.      219.792  20305    239    0.0106822     0.109498      216.903      2778.87
 707.7929      449790.      221.281  21618    224    0.0101452     0.108595      219.319      2833.40
 714.9791      450011.      221.072  22973    159   0.00955791     0.106747      219.574      2891.22
 722.5245      450248.      237.262  24238    296   0.00966933     0.108723      234.365      2952.57
 730.4473      450431.      182.426  25700    352   0.00700507     0.108154      180.030      3017.68
 738.7662      450642.      211.751  27543     93   0.00765841     0.106810      210.936      3086.80
 747.5011      450848.      205.610  29236    138   0.00700086     0.108225      204.677      3160.23
 756.6726      451088.      240.049  30991    211   0.00769169     0.109135      238.373      3238.25
 766.3028      451312.      223.906  32803    361   0.00674840     0.104398      221.368      3321.21
 776.4144      451552.      240.319  35041    289   0.00680989     0.104530      238.625      3409.43
