# All data in this file is centered around the brightness peak.

# FILENAME = J1231-08_R_ss.fits / Image file name
# PIXSIZE =      0.432056 / Pixel size [arcsec]
# FLUX_UNITS = erg/cm^2/Angstrom/sec / Flux units
# FLUX_SCALE =    4.9777868e-19 / Flux scale [above units / (DN/sec)]
# FLUXCAL =    1 / Flux calibration complete?
# PROFTYPE = brightness / Profile type (isophote/brightness/other)
# NUMGALS =        1 / Number of sources in image
#
# GALINDEX =        1 / Source index (1 - N)
# XCENTER =       960.000 / X(center) [pixels]
# YCENTER =       938.000 / Y(center) [pixels]
# AXERAT =       1.60252 / Axial ratio (a/b)
# PA_IMAGE =       73.7151 / Position angle, counterclockwise from Up [deg]
# PA =        73.751974 / Position angle, from N towards E [deg]
# SKYLEV =       5.79375 / Sky level [DN/sec]
# ERR_SKY_PIXEL =      0.151543 / Sky RMS (pixel-to-pixel) [DN/sec]
# ERR_SKY_BOX =    0.00234246 / Sky RMS (box-to-box) [DN/sec]
# FLUXRAD_S =       428.151 / Sky aperture radius [pixels]
# FLUXRAD_F =       428.151 / Flux aperture radius [pixels]
# FLUXRAD_C =      -999.000 / Radius where SNR=3 [pixels]
# FLUX_S =        182187.12 / Flux within sky aperture [DN/sec]
# FLUX_F =        182187.12 / Flux within flux aperture [DN/sec]
# ERR_FLUX_S_SKY =       841.807 / Uncertainty in FLUX_S due to sky [DN/sec]
# ERR_FLUX_F_SKY =       841.807 / Uncertainty in FLUX_F due to sky [DN/sec]
# RE_F =        132.67707 / Flux aperture half-light radius [pixels]
# ERR_RE_F_SKY =       0.45970055 / Uncertainty in RE_F due to sky [pixels]
# SE_F =        1.6471990 / Face-on surface brightness within RE_F [DN/sec/pixel]
#  a[pix]  F(interior)     dF       N(good) N(bad) SurfBright  Sigma(SB)    dF(raw)  Sigma(F,sky)
# all Flux and Surface Brightness values are in [DN/sec]
   0.0000      0.00000      0.00000      1      0      37.3384      0.00000      37.3384      0.00000
   3.3075      584.254      584.254     24      0      27.2432      10.7756      653.837    0.0502360
   6.6150      1643.47      1059.22     64      0      16.4635      6.39608      1053.66     0.200944
   9.9225      2918.86      1275.39    104      0      11.8940      2.86328      1236.98     0.452124
  13.2300      4395.19      1476.32    150      0      9.83423      2.21825      1475.13     0.803776
  16.5374      6134.15      1738.96    190      0      9.00956      1.87844      1711.82      1.25590
  19.8449      8065.40      1931.25    246      0      8.18658      1.80780      2013.90      1.80850
  23.1524      10077.3      2011.91    278      0      7.21643      1.53049      2006.17      2.46156
  26.4599      12158.6      2081.30    320      0      6.46995      1.49555      2070.38      3.21510
  29.7674      14296.8      2138.20    360      0      5.86483      1.14030      2111.34      4.06912
  33.0749      16529.6      2232.81    408      0      5.47967      1.04170      2235.71      5.02360
  36.3824      18814.8      2285.20    448      0      5.07413     0.977549      2273.21      6.07855
  39.6899      21139.6      2324.75    496      0      4.71308     0.885811      2337.69      7.23398
  42.9973      23494.3      2354.73    536      0      4.39195     0.717462      2354.09      8.48988
  46.3048      25845.7      2351.42    582      0      4.06090     0.596803      2363.45      9.84625
  49.6123      28219.2      2373.49    608      0      3.81634     0.617946      2320.33      11.3031
  52.9198      30626.4      2407.16    672      0      3.62076     0.558014      2433.15      12.8604
  56.2273      33078.0      2451.64    714      0      3.46417     0.497837      2473.42      14.5182
  59.5348      35563.3      2485.31    756      0      3.31107     0.451032      2503.17      16.2765
  62.8423      38055.5      2492.17    792      0      3.14075     0.414013      2487.47      18.1352
  66.1498      40550.0      2494.49    830      0      2.98245     0.361459      2475.44      20.0944
  69.4572      43104.9      2554.90    870      0      2.90567     0.509803      2527.93      22.1541
  72.7647      45686.6      2581.67    918      0      2.79956     0.426812      2569.99      24.3142
  76.0722      48309.1      2622.52    990      0      2.71746     0.427787      2690.29      26.5748
  79.3797      50907.1      2597.96   1000      0      2.57745     0.407417      2577.45      28.9359
  82.6872      53538.7      2631.63   1054      0      2.50429     0.587314      2639.52      31.3975
  85.9947      56150.4      2611.75   1072      0      2.38791     0.623687      2559.84      33.9595
  89.3022      58740.5      2590.04   1154      0      2.27869     0.520378      2629.61      36.6220
  92.6097      61311.6      2571.10   1192      0      2.17978     0.452605      2598.29      39.3850
  95.9171      63871.2      2559.63   1210      0      2.09391     0.540399      2533.63      42.2485
  99.2246      66437.6      2566.37   1250      0      2.02826     0.592159      2535.33      45.2124
 102.5321      68941.2      2503.62   1318      0      1.91379     0.448018      2522.38      48.2768
 105.8396      71405.8      2464.60   1336      0      1.82416     0.423520      2437.07      51.4416
 109.1471      73847.3      2441.50   1424      0      1.75146     0.388166      2494.07      54.7070
 112.4546      76258.5      2411.23   1428      0      1.67811     0.380303      2396.34      58.0728
 115.7621      78663.0      2404.54   1476      0      1.62494     0.369546      2398.42      61.5391
 119.0696      81052.7      2389.65   1526      0      1.56940     0.356286      2394.90      65.1059
 122.3770      83507.0      2454.34   1552      0      1.56772     0.617167      2433.11      68.7731
 125.6845      85973.8      2466.71   1632      0      1.53360     0.714011      2502.84      72.5408
 128.9920      88360.3      2386.58   1632      4      1.44524     0.403712      2358.64      76.4090
 132.2995      90745.3      2384.99   1678     30      1.40772     0.355728      2362.16      80.3776
 135.6070      93124.0      2378.71   1680     38      1.36934     0.359123      2300.49      84.4467
 138.9145      95474.0      2349.94   1734     44      1.32018     0.293988      2289.20      88.6163
 142.2220      97779.2      2305.21   1793     41      1.26459     0.302304      2267.41      92.8863
 145.5295      100072.      2292.97   1837     17      1.22895     0.342065      2257.58      97.2569
 148.8370      102349.      2276.97   1930      0      1.19295     0.330160      2302.40      101.728
 152.1444      104630.      2281.24   1944      0      1.16893     0.287839      2272.40      106.299
 155.4519      106970.      2339.60   1994      0      1.17304     0.393749      2339.05      110.971
 158.7594      109387.      2417.29   2008      0      1.18649     0.599969      2382.46      115.744
 162.0669      111785.      2397.37   2110      0      1.15244     0.528502      2431.66      120.617
 165.3744      114136.      2351.02   2140      0      1.10733     0.465899      2369.69      125.590
 168.6819      116407.      2271.72   2158      0      1.04879     0.359171      2263.29      130.664
 171.9894      118636.      2228.52   2186      0      1.00888     0.351894      2205.40      135.838
 175.2969      120832.      2196.26   2252      0     0.975325     0.504990      2196.43      141.113
 178.6043      122988.      2155.89   2308      0     0.939506     0.580154      2168.38      146.488
 181.9118      125013.      2025.12   2349     11     0.866323     0.322596      2034.99      151.964
 185.2193      126998.      1984.82   2318     32     0.833786     0.254353      1932.72      157.540
 188.5268      128964.      1965.82   2396     24     0.811189     0.253989      1943.61      163.217
 191.8343      130869.      1905.66   2461      3     0.772686     0.235523      1901.58      168.994
 195.1418      132738.      1868.58   2502      0     0.744700     0.231702      1863.24      174.871
 198.4493      134553.      1814.66   2574      0     0.711059     0.223876      1830.27      180.850
 201.7568      136344.      1791.75   2596      0     0.690474     0.240430      1792.47      186.928
 205.0642      138103.      1758.36   2618     24     0.666591     0.237248      1745.14      193.107
 208.3717      139829.      1726.40   2622     40     0.644003     0.235672      1688.57      199.387
 211.6792      141520.      1690.49   2648     56     0.620676     0.235814      1643.55      205.767
 214.9867      143193.      1673.33   2739     63     0.604849     0.245090      1656.68      212.247
 218.2942      144847.      1653.66   2738     72     0.588615     0.254758      1611.63      218.828
 221.6017      146460.      1613.56   2788     74     0.565705     0.232838      1577.18      225.509
 224.9092      148026.      1566.22   2796     82     0.540976     0.223438      1512.57      232.291
 228.2167      149538.      1511.99   2855     81     0.514618     0.196316      1469.23      239.174
 231.5241      151018.      1479.05   2900     98     0.496164     0.185635      1438.88      246.156
 234.8316      152438.      1420.97   2890    112     0.469918     0.179142      1358.06      253.240
 238.1391      153833.      1394.29   2971    123     0.454646     0.181447      1350.75      260.423
 241.4466      155172.      1339.02   2982    114     0.430604     0.166916      1284.06      267.708
 244.7541      156472.      1300.02   3026    100     0.412370     0.161089      1247.83      275.092
 248.0616      157715.      1243.66   3114     88     0.389198     0.145563      1211.96      282.577
 251.3691      158898.      1182.22   3181     91     0.365070     0.149020      1161.29      290.163
 254.6766      160071.      1173.69   3188     94     0.357699     0.178524      1140.34      297.849
 257.9841      161236.      1164.21   3195    111     0.350233     0.241857      1118.99      305.636
 261.2915      162353.      1117.25   3236    112     0.331827     0.213210      1073.79      313.523
 264.5990      163393.      1040.08   3308    108     0.305017     0.184983      1009.00      321.510
 267.9065      164377.      984.523   3375     97     0.285138     0.165213      962.342      329.598
 271.2140      165332.      955.057   3435     69     0.273210     0.167123      938.478      337.787
 274.5215      166250.      917.106   3456     64     0.259174     0.167387      895.705      346.076
 277.8290      167136.      886.803   3551     43     0.247609     0.163680      879.261      354.465
 281.1364      167977.      840.198   3596     22     0.231822     0.167993      833.631      362.955
 284.4439      168800.      823.595   3644     18     0.224581     0.185131      818.375      371.545
 287.7514      169591.      791.059   3696     28     0.213215     0.180229      788.044      380.236
 291.0589      170344.      753.205   3697     41     0.200692     0.176442      741.959      389.027
 294.3664      171063.      718.339   3742     64     0.189239     0.164067      708.134      397.919
 297.6739      171733.      669.952   3750     66     0.174521     0.155457      654.452      406.912
 300.9814      172359.      626.493   3846     60     0.161398     0.133806      620.735      416.004
 304.2889      172961.      601.263   3893     21     0.153204     0.131699      596.422      425.197
 307.5964      173528.      567.076   3984      0     0.142930     0.130272      569.435      434.491
 310.9039      174060.      532.352   4004      0     0.132743     0.132005      531.503      443.885
 314.2113      174562.      501.763   4015     21     0.123793     0.131020      497.027      453.380
 317.5188      175006.      444.763   4024     36     0.108580     0.122361      436.928      462.975
 320.8263      175433.      426.835   4129     51     0.103124     0.126779      425.799      472.670
 324.1338      175825.      391.926   4157     37    0.0937186     0.127487      389.588      482.466
 327.4413      176202.      377.261   4212     24    0.0892960     0.129032      376.115      492.363
 330.7488      176557.      354.543   4216     26    0.0830752     0.125631      350.245      502.360
 334.0563      176875.      317.801   4230     44    0.0737252     0.123257      311.858      512.457
 337.3638      177179.      304.339   4374     46    0.0699064     0.129935      305.771      522.655
 340.6712      177472.      292.742   4339     49    0.0665873     0.132104      288.922      532.954
 343.9787      177762.      289.619   4390     42    0.0652400     0.135149      286.403      543.352
 347.2862      178037.      275.051   4430     36    0.0613653     0.137873      271.848      553.852
 350.5937      178303.      266.886   4521      9    0.0589790     0.123736      266.644      564.452
 353.9012      178528.      224.467   4574      0    0.0491395     0.126572      224.764      575.152
 357.2087      178762.      233.722   4618      0    0.0506895     0.129038      234.084      585.953
 360.5162      178971.      209.495   4659      1    0.0450163     0.121542      209.731      596.854
 363.8236      179194.      223.004   4662     14    0.0474814     0.145950      221.358      607.855
 367.1311      179415.      221.204   4723     19    0.0466720     0.164353      220.432      618.958
 370.4386      179621.      205.426   4715     47    0.0429543     0.123752      202.530      630.160
 373.7461      179817.      196.219   4766     62    0.0406644     0.126739      193.806      641.463
 377.0536      180007.      190.116   4825     61    0.0390528     0.126524      188.430      652.867
 380.3611      180215.      207.878   4854     54    0.0423282     0.128042      205.461      664.371
 383.6686      180417.      202.325   4902     48    0.0408408     0.141767      200.202      675.975
 386.9761      180595.      177.999   4920     64    0.0356218     0.134461      175.259      687.680
 390.2836      180735.      139.915   4955     89    0.0277621     0.125577      137.561      699.486
 393.5911      180857.      121.874   4996    112    0.0239783     0.123271      119.795      711.392
 396.8985      181007.      150.189   4987    145    0.0293023     0.134421      146.130      723.398
 400.2060      181161.      153.423   5021    161    0.0296845     0.141250      149.046      735.505
 403.5135      181288.      127.567   5004    156    0.0244788     0.124855      122.492      747.712
 406.8210      181415.      127.151   5110    142    0.0241995     0.122307      123.660      760.020
 410.1285      181556.      141.021   5194    168    0.0266223     0.128877      138.276      772.429
 413.4360      181665.      108.118   5071    245    0.0202467     0.125178      102.671      784.937
 416.7434      181780.      115.089   5067    303    0.0213806     0.125475      108.335      797.546
 420.0509      181913.      133.094   5076    326    0.0245298     0.129463      124.513      810.256
 423.3584      182034.      120.948   5131    309    0.0221164     0.129049      113.479      823.066
 428.1510      182187.      153.412   7678    364    0.0191758     0.129526      147.232      841.807
 431.4585      182321.      133.841   5400    184    0.0240129     0.131768      129.669      854.863
 434.9314      182461.      139.947   5759    127    0.0237254     0.135448      136.635      868.680
 438.5779      182620.      159.459   6149     87    0.0255363     0.128341      157.023      883.307
 442.4067      182755.      134.219   6510    108    0.0202969     0.125894      132.133      898.797
 446.4269      182914.      159.203   6897    135    0.0227265     0.133508      156.745      915.207
 450.6482      183032.      117.954   7333     89    0.0158889     0.132381      116.513      932.596
 455.0806      183141.      109.463   7759     69    0.0139087     0.130266      107.918      951.032
 459.7346      183245.      103.664   8369     21    0.0124201     0.127653      103.944      970.583
 464.6212      183360.      114.974   8851      1    0.0129838     0.124657      114.919      991.326
 469.7522      183509.      148.663   9315     53    0.0158173     0.135915      147.338      1013.34
 475.1398      183606.      97.0522   9902    106   0.00972492     0.120912      96.2962      1036.72
 480.7967      183693.      87.2264  10403    181   0.00822795     0.121923      85.5954      1061.55
 486.7365      183806.      112.867  10997    231    0.0100181     0.130095      110.169      1087.94
 492.9732      183921.      115.164  11691    299   0.00961423     0.129904      112.400      1116.00
 499.5219      184086.      165.537  12621    183    0.0129918     0.129601      163.969      1145.85
 506.3978      184204.      117.849  13428     94   0.00869117     0.127151      116.705      1177.61
 513.6176      184314.      109.782  14371     67   0.00760416     0.125538      109.279      1211.43
 521.1985      184429.      114.831  15323     83   0.00746675     0.131966      114.413      1247.45
