# All data in this file is centered around the brightness peak.

# FILENAME = J1954-58_R_ss.fits / Image file name
# PIXSIZE =      0.431998 / Pixel size [arcsec]
# FLUX_UNITS = erg/cm^2/Angstrom/sec / Flux units
# FLUX_SCALE =    4.7468312e-19 / Flux scale [above units / (DN/sec)]
# FLUXCAL =    1 / Flux calibration complete?
# PROFTYPE = brightness / Profile type (isophote/brightness/other)
# NUMGALS =        1 / Number of sources in image
#
# GALINDEX =        1 / Source index (1 - N)
# XCENTER =       1349.11 / X(center) [pixels]
# YCENTER =       1283.03 / Y(center) [pixels]
# AXERAT =       1.42209 / Axial ratio (a/b)
# PA_IMAGE =       140.625 / Position angle, counterclockwise from Up [deg]
# PA =        140.23649 / Position angle, from N towards E [deg]
# SKYLEV =       5.09494 / Sky level [DN/sec]
# ERR_SKY_PIXEL =      0.125806 / Sky RMS (pixel-to-pixel) [DN/sec]
# ERR_SKY_BOX =    0.00347965 / Sky RMS (box-to-box) [DN/sec]
# FLUXRAD_S =       533.727 / Sky aperture radius [pixels]
# FLUXRAD_F =       533.727 / Flux aperture radius [pixels]
# FLUXRAD_C =      -999.000 / Radius where SNR=3 [pixels]
# FLUX_S =        177809.31 / Flux within sky aperture [DN/sec]
# FLUX_F =        177809.31 / Flux within flux aperture [DN/sec]
# ERR_FLUX_S_SKY =       2189.76 / Uncertainty in FLUX_S due to sky [DN/sec]
# ERR_FLUX_F_SKY =       2189.76 / Uncertainty in FLUX_F due to sky [DN/sec]
# RE_F =        104.20784 / Flux aperture half-light radius [pixels]
# ERR_RE_F_SKY =        1.6523159 / Uncertainty in RE_F due to sky [pixels]
# SE_F =        2.6059964 / Face-on surface brightness within RE_F [DN/sec/pixel]
#  a[pix]  F(interior)     dF       N(good) N(bad) SurfBright  Sigma(SB)    dF(raw)  Sigma(F,sky)
# all Flux and Surface Brightness values are in [DN/sec]
   0.0000      0.00000      0.00000      0      0      0.00000      0.00000      0.00000      0.00000
   3.9171      1501.42      1501.42     34      0      44.2947      7.17783      1506.02     0.117947
   7.8342      4642.07      3140.65     99      0      30.8850      5.62251      3057.62     0.471787
  11.7513      8271.62      3629.55    171      0      21.4157      3.01309      3662.09      1.06152
  15.6684      12096.6      3824.94    233      0      16.1204      2.23366      3756.06      1.88715
  19.5855      15961.1      3864.58    316      0      12.6681      2.18107      4003.11      2.94867
  23.5026      19971.9      4010.79    363      0      10.7569      2.02200      3904.75      4.24609
  27.4197      24192.0      4220.02    445      0      9.57680      1.88500      4261.68      5.77939
  31.3368      28748.4      4556.44    510      0      8.96157      1.55952      4570.40      7.54860
  35.2539      33216.8      4468.45    578      0      7.75456     0.819165      4482.14      9.55369
  39.1710      37486.1      4269.26    636      0      6.62901     0.651830      4216.05      11.7947
  43.0880      41629.6      4143.45    715      0      5.82094     0.710671      4161.97      14.2716
  47.0051      45806.9      4177.34    776      0      5.35824     0.666386      4158.00      16.9843
  50.9222      49940.9      4133.98    853      0      4.87841     0.586059      4161.28      19.9330
  54.8393      53948.9      4008.03    905      0      4.37942     0.565749      3963.38      23.1176
  58.7564      57699.9      3751.00    987      0      3.81592     0.457380      3766.31      26.5380
  62.6735      61198.7      3498.79   1055      0      3.32970     0.446980      3512.84      30.1944
  66.5906      64506.9      3308.16   1129      0      2.95748     0.405341      3339.00      34.0866
  70.5077      67607.9      3101.04   1168      0      2.61390     0.393457      3053.03      38.2148
  74.4248      70480.9      2873.06   1271      0      2.29083     0.474537      2911.64      42.5788
  78.3419      73160.6      2679.68   1315      0      2.02707     0.425600      2665.60      47.1787
  82.2590      75670.0      2509.40   1395      0      1.80566     0.481453      2518.90      52.0145
  86.1761      78043.9      2373.83   1438      8      1.62866     0.454202      2342.01      57.0863
  90.0932      80345.1      2301.25   1511     23      1.50869     0.406611      2279.63      62.3939
  94.0103      82656.5      2311.36   1561     21      1.45084     0.373120      2264.77      67.9374
  97.9274      84991.6      2335.14   1659      7      1.40594     0.336112      2332.45      73.7168
 101.8445      87356.4      2364.75   1701     19      1.36793     0.304710      2326.86      79.7320
 105.7616      89706.7      2350.31   1765     55      1.30827     0.309703      2309.10      85.9832
 109.6787      92047.1      2340.43   1751     92      1.25540     0.354414      2198.21      92.4703
 113.5958      94361.8      2314.74   1863     85      1.19806     0.302947      2231.98      99.1933
 117.5129      96563.6      2201.75   1966     24      1.10094     0.227533      2164.46      106.152
 121.4299      98716.7      2153.11   2082      0      1.04132     0.276611      2168.03      113.347
 125.3470      100734.      2016.94   2121      0     0.944502     0.233066      2003.29      120.778
 129.2641      102643.      1909.70   2215      0     0.866767     0.238990      1919.89      128.444
 133.1812      104468.      1824.98   2263      0     0.803589     0.262498      1818.52      136.347
 137.0983      106210.      1741.33   2347      0     0.744529     0.261430      1747.41      144.485
 141.0154      107857.      1647.84   2382      0     0.684708     0.253696      1630.97      152.859
 144.9325      109421.      1563.36   2490      0     0.631809     0.226404      1573.20      161.469
 148.8496      110954.      1533.34   2539      0     0.603152     0.241417      1531.40      170.315
 152.7667      112495.      1541.09   2613      5     0.590458     0.269139      1542.87      179.397
 156.6838      114019.      1523.81   2625     36     0.569053     0.265251      1493.76      188.715
 160.6009      115530.      1510.80   2729     39     0.550265     0.351183      1501.67      198.269
 164.5180      117034.      1504.12   2774     29     0.534631     0.323648      1483.07      208.058
 168.4351      118505.      1470.85   2894      3     0.510504     0.254944      1477.40      218.084
 172.3522      119991.      1486.20   2924      0     0.503971     0.236700      1473.61      228.345
 176.2693      121444.      1452.87   3042      0     0.481599     0.226890      1465.03      238.842
 180.1864      122884.      1440.01   3059      3     0.466846     0.216798      1428.08      249.575
 184.1035      124325.      1440.64   3120     34     0.457006     0.221398      1425.86      260.544
 188.0206      125774.      1449.80   3124     86     0.450231     0.219551      1406.52      271.749
 191.9377      127226.      1451.55   3211    104     0.441478     0.203662      1417.59      283.190
 195.8548      128688.      1461.87   3265     77     0.435636     0.200515      1422.35      294.867
 199.7719      130172.      1484.08   3374     43     0.433497     0.204671      1462.62      306.780
 203.6889      131623.      1451.22   3478     28     0.415668     0.189647      1445.69      318.928
 207.6060      133007.      1383.47   3536     34     0.388713     0.191090      1374.49      331.313
 211.5231      134312.      1305.92   3561     46     0.360065     0.179332      1282.19      343.933
 215.4402      135551.      1238.44   3628     76     0.335198     0.150730      1216.10      356.789
 219.3573      136737.      1186.06   3672     91     0.315234     0.144923      1157.54      369.881
 223.2744      137866.      1129.22   3714    113     0.294817     0.154535      1094.95      383.209
 227.1915      138910.      1044.00   3744    136     0.267825     0.123799      1002.74      396.773
 231.1086      139908.      997.996   3856    120     0.251648     0.121390      970.354      410.573
 235.0257      140897.      988.555   3829    203     0.245077     0.128367      938.402      424.609
 238.9428      141894.      997.363   3875    241     0.243175     0.131227      942.303      438.880
 242.8599      142860.      965.737   3859    285     0.231634     0.122293      893.875      453.388
 246.7770      143808.      948.392   3967    296     0.223835     0.118985      887.954      468.131
 250.6941      144782.      973.715   4065    239     0.226192     0.187265      919.471      483.110
 254.6112      145823.      1040.67   4168    207     0.237997     0.379505      991.973      498.325
 258.5283      146870.      1046.88   4240    183     0.235763     0.338610      999.634      513.776
 262.4454      147881.      1011.86   4352    189     0.224449     0.230756      976.800      529.463
 266.3625      148835.      953.712   4322    224     0.208418     0.161412      900.782      545.386
 270.2796      149715.      879.941   4349    297     0.189488     0.131693      824.083      561.545
 274.1967      150557.      842.286   4365    338     0.178771     0.138550      780.335      577.939
 278.1137      151417.      859.461   4397    401     0.179828     0.140474      790.702      594.570
 282.0309      152278.      861.248   4424    413     0.177680     0.139790      786.058      611.436
 285.9479      153145.      866.834   4476    428     0.176368     0.139095      789.423      628.539
 289.8650      153954.      809.089   4499    487     0.162378     0.127979      730.541      645.877
 293.7821      154729.      774.909   4518    560     0.153432     0.114574      693.205      663.451
 297.6992      155493.      764.382   4567    534     0.149342     0.127230      682.043      681.261
 301.6163      156240.      746.681   4707    487     0.143978     0.137262      677.703      699.307
 305.5334      157011.      770.837   4833    438     0.146717     0.187239      709.086      717.589
 309.4505      157763.      752.031   4830    487     0.141313     0.190670      682.543      736.106
 313.3676      158518.      755.551   4827    535     0.140190     0.187484      676.698      754.860
 317.2847      159259.      740.179   4862    598     0.135632     0.155428      659.442      773.849
 321.2018      159944.      685.883   4954    582     0.124140     0.130530      614.991      793.074
 325.1189      160586.      641.862   5032    549     0.114764     0.117182      577.491      812.536
 329.0360      161224.      637.735   5145    512     0.112661     0.118728      579.643      832.233
 332.9531      161857.      632.793   5267    473     0.110465     0.133366      581.820      852.166
 336.8701      162456.      599.189   5278    518     0.103376     0.122134      545.617      872.335
 340.7873      163055.      598.619   5341    514     0.102082     0.118991      545.222      892.740
 344.7044      163619.      563.914   5477    479    0.0950663     0.111845      520.678      913.380
 348.6215      164208.      589.073   5508    479    0.0981852     0.126331      540.804      934.257
 352.5386      164764.      556.491   5558    530    0.0917175     0.112936      509.766      955.369
 356.4557      165303.      538.867   5509    591    0.0878325     0.113010      483.869      976.718
 360.3727      165854.      551.491   5602    606    0.0889072     0.141749      498.058      998.302
 364.2898      166398.      543.096   5752    530    0.0866075     0.128668      498.167      1020.12
 368.2069      166931.      533.814   5928    404    0.0842163     0.172744      499.234      1042.18
 372.1240      167439.      507.974   6051    328    0.0792920     0.133053      479.796      1064.47
 376.0411      167937.      497.825   6259    231    0.0768943     0.121146      481.281      1087.00
 379.9583      168434.      496.859   6369    187    0.0759493     0.119038      483.721      1109.76
 383.8753      168921.      487.400   6321    286    0.0737395     0.135120      466.107      1132.76
 387.7924      169381.      459.845   6372    313    0.0688648     0.127938      438.807      1156.00
 391.7095      169794.      412.771   6490    274    0.0611937     0.109377      397.147      1179.47
 395.6266      170184.      390.041   6539    259    0.0572481     0.110988      374.345      1203.18
 399.5437      170563.      379.054   6632    236    0.0550880     0.111835      365.344      1227.12
 403.4608      170900.      336.589   6794    165    0.0484391     0.101210      329.095      1251.30
 407.3779      171211.      310.835   6860    147    0.0443007     0.102938      303.903      1275.71
 411.2950      171518.      307.786   6952    130    0.0434457     0.109168      302.035      1300.36
 415.2121      171791.      272.661   6930    204    0.0381236     0.104771      264.197      1325.25
 419.1292      172042.      251.455   6941    289    0.0348281    0.0996125      241.742      1350.37
 423.0463      172271.      228.686   6974    333    0.0313797    0.0975027      218.842      1375.73
 426.9634      172491.      219.709   6922    422    0.0298702    0.0975237      206.761      1401.33
 430.8805      172726.      235.355   6981    444    0.0317052     0.102816      221.334      1427.16
 434.7975      172960.      234.264   7005    497    0.0312725     0.117074      219.064      1453.22
 438.7147      173167.      207.028   6996    568    0.0273888    0.0991229      191.612      1479.53
 442.6317      173390.      222.503   7053    554    0.0291745     0.111076      205.768      1506.06
 446.5488      173595.      205.433   7321    394    0.0266989     0.104250      195.463      1532.84
 450.4659      173821.      225.949   7492    256    0.0291089     0.111846      218.084      1559.85
 454.3830      174026.      204.418   7626    199    0.0261068     0.108493      199.091      1587.09
 458.3001      174232.      205.809   7717    163    0.0260590     0.108947      201.097      1614.57
 462.2172      174522.      290.862   7801    187    0.0365148     0.173514      284.852      1642.29
 466.1343      174760.      237.805   7839    175    0.0296019     0.158570      232.049      1670.25
 470.0514      174974.      213.561   7976    145    0.0263619     0.109492      210.263      1698.43
 473.9685      175144.      170.133   7964    181    0.0208268     0.103973      165.865      1726.86
 477.8856      175305.      161.035   7985    288    0.0195508     0.103955      156.113      1755.52
 481.8027      175464.      159.280   7974    310    0.0191797     0.104042      152.939      1784.42
 485.7198      175637.      172.841   8040    343    0.0206443     0.106001      165.981      1813.55
 489.6369      175837.      200.090   8045    373    0.0237071     0.119864      190.723      1842.92
 493.5540      175998.      160.704   8123    431    0.0188887     0.112801      153.433      1872.52
 497.4711      176165.      167.375   8087    455    0.0195173     0.115877      157.836      1902.36
 501.3882      176332.      166.408   8163    482    0.0192524     0.105975      157.157      1932.44
 505.3053      176502.      170.239   8128    562    0.0195424     0.116848      158.841      1962.75
 509.2224      176662.      160.328   8266    557    0.0182624     0.117410      150.957      1993.30
 513.1395      176809.      146.805   8255    544    0.0165940     0.108795      136.983      2024.09
 517.0565      176953.      143.754   8440    509    0.0161256     0.104424      136.100      2055.10
 520.9736      177116.      163.096   8626    338    0.0181572     0.103179      156.624      2086.36
 524.8907      177328.      212.554   8777    306    0.0234857     0.115673      206.134      2117.85
 528.8079      177549.      220.366   8697    374    0.0241682     0.118891      210.191      2149.58
 533.7270      177809.      260.478  11147    422    0.0225588     0.134062      251.463      2189.76
 537.6441      178026.      216.239   8938    347    0.0233243     0.139029      208.473      2222.02
 541.7570      178243.      217.724   9398    415    0.0221998     0.112040      208.634      2256.15
 546.0756      178506.      262.408   9981    399    0.0252842     0.184345      252.362      2292.26
 550.6101      178781.      275.123  10508    468    0.0250433     0.151808      263.155      2330.49
 555.3714      179000.      218.726  11049    573    0.0188022     0.114876      207.745      2370.96
 560.3707      179165.      165.928  11644    693    0.0134654    0.0991506      156.792      2413.84
 565.6200      179351.      185.994  12211    831    0.0142444     0.111000      173.939      2459.28
 571.1318      179522.      170.527  13075    763    0.0123202     0.108445      161.086      2507.44
 576.9191      179731.      209.207  14043    621    0.0142533     0.105866      200.159      2558.51
 582.9957      179945.      213.401  15020    587    0.0137051     0.105493      205.851      2612.70
 589.3763      180177.      232.016  15873    641    0.0140401     0.105961      222.859      2670.20
 596.0759      180420.      243.675  16816    712    0.0138886     0.107512      233.550      2731.25
 603.1104      180771.      350.371  17645    985    0.0188012     0.133828      331.747      2796.09
 610.4966      181138.      367.049  18648   1145    0.0185353     0.119734      345.645      2865.00
 618.2523      181425.      287.602  20096    987    0.0136613     0.107412      274.538      2938.25
 626.3956      181643.      218.120  21252   1145   0.00974150    0.0985504      207.026      3016.17
 634.9461      181967.      323.856  22463   1358    0.0135926     0.111556      305.331      3099.07
 643.9241      182497.      529.579  24030   1322    0.0208786     0.132907      501.712      3187.33
