# All data in this file is centered around the brightness peak.

# FILENAME = J2025-24_Rsub_ss.fits / Image file name
# PIXSIZE =      0.432261 / Pixel size [arcsec]
# FLUX_UNITS = erg/cm^2/sec / Flux units
# FLUX_SCALE =    6.8176959e-16 / Flux scale [above units / (DN/sec)]
# FLUXCAL =    1 / Flux calibration complete?
# PROFTYPE = brightness / Profile type (isophote/brightness/other)
# NUMGALS =        1 / Number of sources in image
#
# GALINDEX =        1 / Source index (1 - N)
# XCENTER =       1124.00 / X(center) [pixels]
# YCENTER =       1288.00 / Y(center) [pixels]
# AXERAT =       1.38660 / Axial ratio (a/b)
# PA_IMAGE =       82.7160 / Position angle, counterclockwise from Up [deg]
# PA =        82.901657 / Position angle, from N towards E [deg]
# SKYLEV =   -0.00171801 / Sky level [DN/sec]
# ERR_SKY_PIXEL =    0.00669966 / Sky RMS (pixel-to-pixel) [DN/sec]
# ERR_SKY_BOX =   0.000136995 / Sky RMS (box-to-box) [DN/sec]
# FLUXRAD_S =       552.910 / Sky aperture radius [pixels]
# FLUXRAD_F =       552.910 / Flux aperture radius [pixels]
# FLUXRAD_C =      -999.000 / Radius where SNR=3 [pixels]
# FLUX_S =        4741.5988 / Flux within sky aperture [DN/sec]
# FLUX_F =        4741.5988 / Flux within flux aperture [DN/sec]
# ERR_FLUX_S_SKY =       94.8881 / Uncertainty in FLUX_S due to sky [DN/sec]
# ERR_FLUX_F_SKY =       94.8881 / Uncertainty in FLUX_F due to sky [DN/sec]
# ERR_FLUX_S_CONT =        317.64717 / Uncertainty in FLUX_S due to continuum [DN/sec]
# ERR_FLUX_F_CONT =        317.64717 / Uncertainty in FLUX_F due to continuum [DN/sec]
# RE_F =        97.899233 / Flux aperture half-light radius [pixels]
# ERR_RE_F_SKY =        2.0018223 / Uncertainty in RE_F due to sky [pixels]
# ERR_RE_F_CONT =       0.24304003 / Uncertainty in RE_F due to continuum [pixels]
# SE_F =      0.078738357 / Face-on surface brightness within RE_F [DN/sec/pixel]
#  a[pix]  F(interior)     dF       N(good) N(bad) SurfBright  Sigma(SB)    dF(raw)  Sigma(F,sky)  Sigma(F,cntrat)
# all Flux and Surface Brightness values are in [DN/sec]
   0.0000      0.00000      0.00000      1      0      2.48481      0.00000      2.48481      0.00000      0.00000
   5.6983      153.977      153.977     74      0      2.09297      1.13314      154.880    0.0100785      5.68073
  11.3966      347.479      193.502    224      0     0.876743     0.632882      196.390    0.0403140      14.7781
  17.0950      460.023      112.543    364      0     0.305955     0.177557      111.368    0.0907066      23.3349
  22.7933      546.329      86.3058    512      0     0.167590    0.0812447      85.8063     0.161256      31.8725
  28.4916      632.054      85.7249    668      0     0.129471    0.0726583      86.4865     0.251963      41.2178
  34.1899      715.581      83.5272    806      0     0.103215    0.0752189      83.1912     0.362826      51.2772
  39.8882      800.893      85.3125    950      0    0.0892023    0.0689108      84.7422     0.493847      61.7765
  45.5865      906.499      105.606   1114      0    0.0956984    0.0913472      106.608     0.645025      72.3736
  51.2849      1029.11      122.606   1246      0    0.0980327     0.117329      122.149     0.816359      82.6036
  56.9832      1212.24      183.138   1404      0     0.131019     0.291626      183.950      1.00785      92.4264
  62.6815      1519.36      307.115   1550      0     0.198787     0.590119      308.120      1.21950      103.005
  68.3798      1740.45      221.092   1676      0     0.130663     0.323078      218.991      1.45131      112.205
  74.0781      1890.46      150.008   1834      0    0.0815611     0.181688      149.583      1.70327      120.720
  79.7765      2009.01      118.549   1988      0    0.0596817     0.113307      118.647      1.97539      128.902
  85.4748      2108.71      99.7016   2154      0    0.0467317    0.0771714      100.660      2.26766      136.847
  91.1731      2219.83      111.122   2219     45    0.0487245    0.0813015      108.120      2.58010      144.554
  96.8714      2346.47      126.633   2342     96    0.0521604    0.0928728      122.160      2.91269      151.940
 102.5697      2469.26      122.796   2444    142    0.0476897     0.110821      116.554      3.26544      159.380
 108.2680      2580.67      111.403   2504    198    0.0409263    0.0921027      102.479      3.63834      166.696
 113.9664      2673.50      92.8312   2664    200    0.0323546    0.0662893      86.1927      4.03140      173.934
 119.6647      2773.82      100.324   2769    253    0.0332606    0.0538586      92.0986      4.44462      181.396
 125.3630      2892.44      118.623   2858    306    0.0374978    0.0592380      107.169      4.87800      189.026
 131.0613      3010.35      117.910   3001    309    0.0356161    0.0553000      106.884      5.33153      196.686
 136.7596      3181.58      171.225   3217    259    0.0495195     0.113525      159.304      5.80522      204.570
 142.4580      3426.34      244.759   3437    151    0.0678967     0.200591      233.361      6.29907      212.279
 148.1563      3636.59      210.255   3668     82    0.0560382     0.141179      205.548      6.81307      219.685
 153.8546      3790.02      153.431   3755    141    0.0393500    0.0944080      147.759      7.34723      226.452
 159.5529      3915.16      125.137   3761    271    0.0309263    0.0945695      116.314      7.90155      232.742
 165.2512      4010.08      94.9191   3858    360    0.0226353    0.0707117      87.3270      8.47603      238.346
 170.9495      4065.21      55.1318   3953    401    0.0127016    0.0352336      50.2093      9.07066      243.123
 176.6479      4099.22      34.0042   4102    358   0.00757721    0.0196397      31.0817      9.68545      247.311
 182.3462      4120.72      21.5001   4314    338   0.00463881    0.0121071      20.0118      10.3204      251.063
 188.0445      4136.64      15.9227   4521    253   0.00332975    0.0100870      15.0538      10.9755      254.347
 193.7428      4148.17      11.5342   4672    256   0.00234001   0.00823155      10.9325      11.6508      257.317
 199.4411      4158.92      10.7465   4805    253   0.00211703   0.00788482      10.1723      12.3462      259.992
 205.1395      4168.62      9.70186   5014    224   0.00185739   0.00753194      9.31298      13.0617      262.440
 210.8378      4178.12      9.50024   5194    182   0.00176896   0.00797771      9.18798      13.7975      264.697
 216.5361      4186.31      8.18671   5351    187   0.00148373   0.00709442      7.93946      14.5534      266.839
 222.2344      4196.25      9.94294   5407    245   0.00175522   0.00732249      9.49047      15.3294      268.914
 227.9327      4207.50      11.2476   5530    274   0.00193526   0.00782868      10.7020      16.1256      270.841
 233.6310      4229.33      21.8273   5662    302   0.00366289    0.0170038      20.7393      16.9420      272.741
 239.3294      4261.43      32.1068   5794    296   0.00525807    0.0318097      30.4652      17.7785      274.710
 245.0277      4293.73      32.3022   6005    251   0.00516560    0.0183623      31.0194      18.6352      276.542
 250.7260      4331.70      37.9687   6182    240   0.00593218    0.0219766      36.6728      19.5120      278.276
 256.4243      4361.27      29.5668   6169    385   0.00451565    0.0165310      27.8571      20.4090      279.950
 262.1227      4380.29      19.0210   6170    522   0.00284118    0.0104869      17.5301      21.3261      281.529
 267.8210      4392.39      12.1025   6123    695   0.00176889   0.00773543      10.8309      22.2634      283.094
 273.5193      4403.78      11.3852   6298    710   0.00162900   0.00836938      10.2595      23.2209      284.582
 279.2176      4414.43      10.6527   6490    628   0.00149278   0.00754861      9.68812      24.1985      285.932
 284.9159      4423.38      8.94584   6633    617   0.00122827   0.00681670      8.14711      25.1963      287.070
 290.6142      4431.01      7.63140   6831    647   0.00102704   0.00683247      7.01574      26.2142      288.108
 296.3125      4438.37      7.36123   6998    596  0.000971455   0.00659162      6.79825      27.2523      289.036
 302.0109      4445.09      6.71901   7127    579  0.000869806   0.00666161      6.19911      28.3105      289.943
 307.7092      4450.42      5.32856   7166    706  0.000676914   0.00663303      4.85077      29.3889      290.813
 313.4075      4454.69      4.27352   7239    793  0.000532925   0.00658788      3.85784      30.4875      291.584
 319.1058      4461.99      7.29669   7163    965  0.000893531   0.00662140      6.40037      31.6062      292.380
 324.8041      4468.82      6.82910   7042   1280  0.000821469   0.00657164      5.78479      32.7451      293.175
 330.5024      4475.50      6.68128   7127   1339  0.000789716   0.00660750      5.62831      33.9041      293.969
 336.2007      4482.51      7.00968   7317   1279  0.000814365   0.00666851      5.95871      35.0833      294.734
 341.8991      4488.68      6.17420   7564   1218  0.000705246   0.00657786      5.33448      36.2826      295.407
 347.5974      4495.70      7.01647   7782   1138  0.000788206   0.00665220      6.13382      37.5021      296.122
 353.2957      4502.33      6.62905   7748   1242  0.000732577   0.00657906      5.67600      38.7418      296.714
 358.9940      4508.37      6.04088   7940   1280  0.000656897   0.00657461      5.21576      40.0016      297.318
 364.6924      4513.86      5.49515   8065   1253  0.000588145   0.00670540      4.74339      41.2816      298.015
 370.3907      4520.25      6.39038   8367   1167  0.000673354   0.00663470      5.63396      42.5817      298.695
 376.0890      4527.77      7.51176   8262   1368  0.000779431   0.00661068      6.43965      43.9020      299.295
 381.7873      4534.45      6.68349   8247   1569  0.000683059   0.00655188      5.63319      45.2424      299.901
 387.4856      4541.60      7.14736   8297   1603  0.000719647   0.00662018      5.97091      46.6030      300.550
 393.1840      4549.22      7.62440   8381   1703  0.000756468   0.00659692      6.33996      47.9838      301.150
 398.8823      4555.49      6.26583   8196   2006  0.000612735   0.00657457      5.02198      49.3847      301.761
 404.5806      4562.76      7.27409   8179   2189  0.000701241   0.00655451      5.73545      50.8058      302.359
 410.2789      4569.10      6.34408   8342   2212  0.000603031   0.00652575      5.03049      52.2470      302.993
 415.9772      4577.17      8.07009   8263   2401  0.000756516   0.00659601      6.25109      53.7084      303.583
 421.6755      4583.81      6.63536   8501   2319  0.000613554   0.00654091      5.21582      55.1899      304.197
 427.3739      4591.88      8.06799   8671   2297  0.000736015   0.00665697      6.38198      56.6916      304.940
 433.0722      4600.00      8.12436   8858   2246  0.000731343   0.00667443      6.47824      58.2135      305.541
 438.7705      4608.86      8.85653   9132   2102  0.000786827   0.00684491      7.18530      59.7555      306.078
 444.4688      4616.39      7.52963   9239   2137  0.000660311   0.00667196      6.10062      61.3177      306.664
 450.1671      4625.13      8.74358   9389   2209  0.000757001   0.00669145      7.10748      62.9000      307.365
 455.8654      4633.05      7.91335   9558   2144  0.000676503   0.00659574      6.46602      64.5025      307.906
 461.5638      4639.95      6.90147   9837   2011  0.000582670   0.00659942      5.73173      66.1251      308.403
 467.2621      4647.18      7.23716  10154   1818  0.000603516   0.00662766      6.12811      67.7679      308.961
 472.9604      4652.77      5.58700  10296   1858  0.000460259   0.00658664      4.73882      69.4309      309.598
 478.6587      4659.75      6.98124  10576   1686  0.000568228   0.00656999      6.00958      71.1140      310.225
 484.3570      4667.27      7.51393  10944   1472  0.000604348   0.00665077      6.61399      72.8172      310.932
 490.0554      4675.37      8.10443  11112   1476  0.000644218   0.00667474      7.15856      74.5407      311.428
 495.7537      4681.73      6.35964  11426   1322  0.000499681   0.00658105      5.70936      76.2842      312.050
 501.4520      4688.47      6.74282  11738   1170  0.000523737   0.00656182      6.14762      78.0480      312.654
 507.1503      4694.97      6.49270  11877   1107  0.000498608   0.00657835      5.92196      79.8319      313.234
 512.8486      4702.07      7.10168  12064   1082  0.000539281   0.00656240      6.50588      81.6359      313.863
 518.5469      4708.12      6.05707  12550    796  0.000454874   0.00653491      5.70866      83.4601      314.374
 524.2453      4714.26      6.13238  12666    790  0.000455496   0.00651935      5.76931      85.3045      314.820
 529.9436      4720.76      6.50456  12666    918  0.000477918   0.00649613      6.05330      87.1690      315.352
 535.6419      4725.44      4.67333  12998    800  0.000339700   0.00651560      4.41542      89.0537      315.929
 541.3402      4731.45      6.01925  13105    807  0.000432900   0.00659162      5.67315      90.9586      316.398
 547.0385      4737.23      5.77610  13115    909  0.000411063   0.00657461      5.39109      92.8835      317.000
 552.9100      4741.60      4.36843  13829    821  0.000298544   0.00656705      4.12857      94.8881      317.647
 558.6083      4747.09      5.49121  13720    598  0.000382655   0.00658403      5.25002      96.8540      318.279
 564.5915      4750.13      3.04391  14545    713  0.000199913   0.00666055      2.90773      98.9399      318.961
 570.8739      4753.22      3.08805  15178    984  0.000191066   0.00668856      2.90000      101.154      319.803
 577.4705      4757.51      4.28557  15814   1340  0.000249701   0.00676630      3.94878      103.505      320.675
 584.3968      4759.22      1.70808  16870   1380  9.36802e-05   0.00679881      1.58039      106.003      321.618
 591.6694      4761.49      2.26936  17969   1363  0.000117105   0.00690334      2.10427      108.658      322.693
 599.3057      4762.58      1.09399  19310   1304  5.30925e-05   0.00698512      1.02522      111.481      323.634
 607.3239      4764.64      2.05816  20356   1562  9.38929e-05   0.00676756      1.91128      114.484      324.570
 615.7429      4770.40      5.75867  20963   2445  0.000246839   0.00680885      5.17448      117.680      325.629
 624.5828      4777.18      6.78433  21599   3181  0.000273101   0.00670604      5.89870      121.083      326.664
 633.8647      4784.48      7.29624  23431   3059  0.000275691   0.00669265      6.45972      124.709      327.788
 643.6108      4787.79      3.30909  25715   2497  0.000117308   0.00673711      3.01657      128.573      328.815
 653.8441      4793.11      5.32434  28245   1795  0.000176994   0.00668977      4.99919      132.694      329.989
 664.5892      4796.50      3.38916  30561   1541  0.000105591   0.00677350      3.22697      137.091      331.325
