# All data in this file is centered around the brightness peak.

# FILENAME = J2025-24_R_ss.fits / Image file name
# PIXSIZE =      0.432261 / Pixel size [arcsec]
# FLUX_UNITS = erg/cm^2/Angstrom/sec / Flux units
# FLUX_SCALE =    5.1441036e-19 / Flux scale [above units / (DN/sec)]
# FLUXCAL =    1 / Flux calibration complete?
# PROFTYPE = brightness / Profile type (isophote/brightness/other)
# NUMGALS =        1 / Number of sources in image
#
# GALINDEX =        1 / Source index (1 - N)
# XCENTER =       1124.00 / X(center) [pixels]
# YCENTER =       1288.00 / Y(center) [pixels]
# AXERAT =       1.38660 / Axial ratio (a/b)
# PA_IMAGE =       82.7160 / Position angle, counterclockwise from Up [deg]
# PA =        82.901657 / Position angle, from N towards E [deg]
# SKYLEV =       3.39067 / Sky level [DN/sec]
# ERR_SKY_PIXEL =      0.117670 / Sky RMS (pixel-to-pixel) [DN/sec]
# ERR_SKY_BOX =    0.00566894 / Sky RMS (box-to-box) [DN/sec]
# FLUXRAD_S =       552.910 / Sky aperture radius [pixels]
# FLUXRAD_F =       552.910 / Flux aperture radius [pixels]
# FLUXRAD_C =      -999.000 / Radius where SNR=3 [pixels]
# FLUX_S =        236287.57 / Flux within sky aperture [DN/sec]
# FLUX_F =        236287.57 / Flux within flux aperture [DN/sec]
# ERR_FLUX_S_SKY =       3926.54 / Uncertainty in FLUX_S due to sky [DN/sec]
# ERR_FLUX_F_SKY =       3926.54 / Uncertainty in FLUX_F due to sky [DN/sec]
# RE_F =        101.89560 / Flux aperture half-light radius [pixels]
# ERR_RE_F_SKY =        1.8510791 / Uncertainty in RE_F due to sky [pixels]
# SE_F =        3.6220141 / Face-on surface brightness within RE_F [DN/sec/pixel]
#  a[pix]  F(interior)     dF       N(good) N(bad) SurfBright  Sigma(SB)    dF(raw)  Sigma(F,sky)
# all Flux and Surface Brightness values are in [DN/sec]
   0.0000      0.00000      0.00000      1      0      69.7039      0.00000      69.7039      0.00000
   5.6983      4225.71      4225.71     74      0      57.4391      22.4458      4250.49     0.417056
  11.3966      10993.0      6767.26    224      0      30.6619      13.5049      6868.27      1.66822
  17.0950      17358.1      6365.12    364      0      17.3039      5.65785      6298.61      3.75351
  22.7933      23708.9      6350.84    512      0      12.3322      2.45731      6314.09      6.67290
  28.4916      30660.6      6951.65    668      0      10.4991      1.39355      7013.40      10.4264
  34.1899      38143.5      7482.87    806      0      9.24661      1.31479      7452.77      15.0140
  39.8882      45953.6      7810.12    950      0      8.16623      1.41781      7757.92      20.4358
  45.5865      53836.4      7882.80   1114      0      7.14326      1.49185      7957.60      26.6916
  51.2849      61446.2      7609.81   1246      0      6.08460      1.73760      7581.41      33.7816
  56.9832      68753.1      7306.90   1404      0      5.22741      2.08364      7339.28      41.7056
  62.6815      76621.9      7868.81   1550      0      5.09328      4.05906      7894.58      50.4638
  68.3798      83465.6      6843.69   1676      0      4.04454      2.37678      6778.65      60.0561
  74.0781      89799.8      6334.23   1834      0      3.44399      1.94703      6316.27      70.4825
  79.7765      95886.2      6086.41   1988      0      3.06411      1.67547      6091.45      81.7430
  85.4748      101796.      5909.74   2154      0      2.76999      1.57226      5966.55      93.8376
  91.1731      107529.      5733.01   2219     45      2.51379      1.40903      5578.09      106.766
  96.8714      113023.      5494.10   2342     96      2.26303      1.24225      5300.01      120.529
 102.5697      118558.      5534.73   2470    116      2.14949      1.32817      5309.24      135.126
 108.2680      124000.      5441.77   2573    129      1.99915      1.11117      5143.81      150.557
 113.9664      129384.      5384.36   2693    171      1.87662     0.934647      5053.74      166.822
 119.6647      134935.      5551.03   2782    240      1.84033     0.842699      5119.81      183.922
 125.3630      140611.      5675.68   2894    270      1.79414     0.812297      5192.25      201.855
 131.0613      146308.      5697.48   3065    245      1.72098     0.932486      5274.82      220.623
 136.7596      152173.      5865.03   3298    178      1.69621      1.37726      5594.10      240.224
 142.4580      157908.      5734.77   3505     83      1.59084      1.38414      5575.90      260.660
 148.1563      163416.      5508.39   3668     82      1.46812      1.16765      5385.08      281.930
 153.8546      168451.      5034.47   3760    136      1.29117     0.903322      4854.81      304.034
 159.5529      173130.      4678.77   3790    242      1.15631     0.827240      4382.43      326.972
 165.2512      177298.      4168.51   3884    334     0.994062     0.686471      3860.94      350.744
 170.9495      180852.      3553.57   4031    323     0.818690     0.534001      3300.14      375.351
 176.6479      183967.      3115.33   4179    281     0.694194     0.435070      2901.04      400.791
 182.3462      186758.      2791.12   4449    203     0.602207     0.370904      2679.22      427.066
 188.0445      189201.      2442.50   4625    149     0.510774     0.329220      2362.33      454.174
 193.7428      191410.      2209.46   4739    189     0.448247     0.301745      2124.24      482.117
 199.4411      193400.      1989.66   4877    181     0.391957     0.266465      1911.57      510.894
 205.1395      195221.      1820.89   5103    135     0.348604     0.243628      1778.93      540.505
 210.8378      196900.      1679.36   5359     17     0.312700     0.235180      1675.76      570.950
 216.5361      198493.      1592.76   5436    102     0.288668     0.226935      1569.20      602.229
 222.2344      200037.      1544.02   5461    191     0.272565     0.247993      1488.48      634.343
 227.9327      201470.      1432.91   5581    223     0.246547     0.204130      1375.98      667.290
 233.6310      202883.      1413.87   5755    209     0.237263     0.222185      1365.45      701.071
 239.3294      204348.      1464.38   5903    187     0.239818     0.258845      1415.65      735.687
 245.0277      205710.      1362.59   6076    180     0.217898     0.221781      1323.95      771.137
 250.7260      207001.      1290.27   6281    141     0.201590     0.223748      1266.19      807.421
 256.4243      208246.      1244.90   6384    170     0.190130     0.210269      1213.79      844.539
 262.1227      209421.      1174.89   6427    265     0.175494     0.181199      1127.90      882.491
 267.8210      210585.      1163.98   6415    403     0.170126     0.182442      1091.36      921.277
 273.5193      211691.      1106.80   6535    473     0.158362     0.195457      1034.89      960.897
 279.2176      212696.      1004.52   6701    417     0.140765     0.218354      943.266      1001.35
 284.9159      213542.      846.579   6855    395     0.116236     0.132562      796.797      1042.64
 290.6142      214314.      771.867   7148    330     0.103879     0.123851      742.527      1084.76
 296.3125      215005.      690.483   7186    408    0.0911225     0.143408      654.806      1127.72
 302.0109      215679.      674.568   7219    487    0.0873258     0.126657      630.405      1171.51
 307.7092      216327.      647.290   7301    571    0.0822285     0.117086      600.350      1216.14
 313.4075      216900.      573.322   7302    730    0.0714955     0.114303      522.060      1261.60
 319.1058      217492.      592.277   7322    806    0.0725285     0.130635      531.054      1307.89
 324.8041      218083.      590.973   7277   1045    0.0710878     0.120292      517.306      1355.02
 330.5024      218674.      591.129   7296   1170    0.0698705     0.145605      509.775      1402.98
 336.2007      219243.      569.143   7405   1191    0.0661215     0.162319      489.629      1451.77
 341.8991      219744.      500.731   7522   1260    0.0571959     0.110073      430.227      1501.40
 347.5974      220276.      531.745   7716   1204    0.0597344     0.135516      460.911      1551.87
 353.2957      220716.      440.292   7867   1123    0.0486567     0.104240      382.782      1603.16
 358.9940      221165.      449.256   8057   1163    0.0488529     0.117306      393.608      1655.30
 364.6924      221684.      518.357   8131   1187    0.0554796     0.145713      451.105      1708.26
 370.3907      222189.      505.619   8264   1270    0.0532771     0.141955      440.282      1762.06
 376.0890      222636.      446.266   8304   1326    0.0463052     0.116196      384.518      1816.70
 381.7873      223087.      450.817   8415   1401    0.0460739     0.123016      387.712      1872.17
 387.4856      223570.      483.342   8497   1403    0.0486663     0.122443      413.518      1928.47
 393.1840      224016.      445.872   8560   1524    0.0442380     0.105741      378.677      1985.60
 398.8823      224470.      454.744   8591   1611    0.0444694     0.105634      382.037      2043.58
 404.5806      224916.      445.047   8685   1683    0.0429036     0.113188      372.618      2102.38
 410.2789      225387.      471.487   8835   1719    0.0448168     0.103327      395.956      2162.02
 415.9772      225825.      438.432   8737   1927    0.0411000     0.108347      359.091      2222.49
 421.6755      226282.      456.655   8788   2032    0.0422257     0.108750      371.079      2283.80
 427.3739      226835.      553.061   8959   2009    0.0504538     0.135603      452.015      2345.94
 433.0722      227282.      447.313   9178   1926    0.0402665     0.106613      369.566      2408.92
 438.7705      227681.      398.806   9344   1890    0.0354305     0.101070      331.063      2472.73
 444.4688      228117.      436.057   9546   1830    0.0382401     0.114332      365.040      2537.37
 450.1671      228639.      521.406   9826   1772    0.0451423     0.153957      443.568      2602.85
 455.8654      229042.      402.999  10023   1679    0.0344519     0.103264      345.312      2669.16
 461.5638      229411.      369.561  10244   1604    0.0312009     0.110963      319.622      2736.31
 467.2621      229826.      415.102  10505   1467    0.0346159     0.106363      363.640      2804.29
 472.9604      230300.      473.816  10745   1409    0.0390330     0.123160      419.410      2873.10
 478.6587      230766.      466.009  10960   1302    0.0379302     0.128450      415.715      2942.75
 484.3570      231292.      526.197  11141   1275    0.0423222     0.169809      471.512      3013.23
 490.0554      231661.      368.950  11480   1108    0.0293277     0.102666      336.682      3084.55
 495.7537      232124.      462.955  11794    954    0.0363747     0.126523      429.003      3156.70
 501.4520      232574.      449.315  12011    897    0.0348997     0.134539      419.181      3229.68
 507.1503      233005.      430.880  12169    815    0.0330895     0.130503      402.666      3303.50
 512.8486      233473.      468.080  12598    548    0.0355446     0.147124      447.791      3378.16
 518.5469      233853.      380.483  12930    416    0.0285735     0.106425      369.455      3453.64
 524.2453      234184.      331.296  12973    483    0.0246077     0.104381      319.236      3529.96
 529.9436      234580.      395.587  13068    516    0.0290654     0.128681      379.827      3607.12
 535.6419      235010.      429.830  13326    472    0.0312440     0.142751      416.357      3685.11
 541.3402      235358.      348.312  13405    507    0.0250503     0.104709      335.799      3763.93
 547.0385      235806.      447.911  13452    572    0.0318761     0.140232      428.797      3843.59
 552.9100      236288.      481.527  14191    459    0.0329082     0.116924      467.001      3926.54
 558.6083      236758.      470.079  13957    361    0.0327574     0.136955      457.195      4007.89
 564.5915      237265.      507.162  14848    410    0.0333085     0.128034      494.565      4094.21
 570.8739      237891.      626.452  15426    736    0.0387604     0.141746      597.918      4185.83
 577.4705      238540.      648.683  16107   1047    0.0377960     0.138374      608.779      4283.12
 584.3968      239241.      701.260  16965   1285    0.0384608     0.153695      652.487      4386.49
 591.6694      240041.      799.645  17954   1378    0.0412640     0.157109      740.854      4496.34
 599.3057      240741.      700.426  19146   1468    0.0339923     0.148060      650.817      4613.15
 607.3239      241437.      695.650  20392   1526    0.0317354     0.132810      647.148      4737.42
 615.7429      242225.      788.003  21358   2050    0.0337768     0.143513      721.405      4869.67
 624.5828      242995.      769.905  22035   2745    0.0309922     0.149517      682.914      5010.50
 633.8647      243831.      835.871  23621   2869    0.0315837     0.152147      746.039      5160.53
 643.6108      244595.      764.041  25777   2435    0.0270854     0.122523      698.180      5320.44
 653.8441      245469.      873.873  28037   2003    0.0290497     0.128269      814.465      5490.98
 664.5892      246462.      993.132  30285   1817    0.0309415     0.138627      937.064      5672.93
