# All data in this file is centered around the brightness peak.

# FILENAME = J2034-31_R_ss.fits / Image file name
# PIXSIZE =      0.432237 / Pixel size [arcsec]
# FLUX_UNITS = erg/cm^2/Angstrom/sec / Flux units
# FLUX_SCALE =    5.1497323e-19 / Flux scale [above units / (DN/sec)]
# FLUXCAL =    1 / Flux calibration complete?
# PROFTYPE = brightness / Profile type (isophote/brightness/other)
# NUMGALS =        1 / Number of sources in image
#
# GALINDEX =        1 / Source index (1 - N)
# XCENTER =       1132.00 / X(center) [pixels]
# YCENTER =       1196.00 / Y(center) [pixels]
# AXERAT =       3.39018 / Axial ratio (a/b)
# PA_IMAGE =       7.96070 / Position angle, counterclockwise from Up [deg]
# PA =        8.1514410 / Position angle, from N towards E [deg]
# SKYLEV =       9.96507 / Sky level [DN/sec]
# ERR_SKY_PIXEL =      0.191106 / Sky RMS (pixel-to-pixel) [DN/sec]
# ERR_SKY_BOX =    0.00697064 / Sky RMS (box-to-box) [DN/sec]
# FLUXRAD_S =       529.576 / Sky aperture radius [pixels]
# FLUXRAD_F =       529.576 / Flux aperture radius [pixels]
# FLUXRAD_C =      -999.000 / Radius where SNR=3 [pixels]
# FLUX_S =        231386.57 / Flux within sky aperture [DN/sec]
# FLUX_F =        231386.57 / Flux within flux aperture [DN/sec]
# ERR_FLUX_S_SKY =       1811.58 / Uncertainty in FLUX_S due to sky [DN/sec]
# ERR_FLUX_F_SKY =       1811.58 / Uncertainty in FLUX_F due to sky [DN/sec]
# RE_F =        102.76485 / Flux aperture half-light radius [pixels]
# ERR_RE_F_SKY =       0.79633637 / Uncertainty in RE_F due to sky [pixels]
# SE_F =        3.4871378 / Face-on surface brightness within RE_F [DN/sec/pixel]
#  a[pix]  F(interior)     dF       N(good) N(bad) SurfBright  Sigma(SB)    dF(raw)  Sigma(F,sky)
# all Flux and Surface Brightness values are in [DN/sec]
   0.0000      0.00000      0.00000      1      0      126.424      0.00000      126.424      0.00000
   4.2086      2121.26      2121.26     16      0      129.237      43.3027      2067.78     0.114415
   8.4173      7570.73      5449.46     46      0      110.668      56.0718      5090.74     0.457659
  12.6259      13889.2      6318.49     86      0      76.9898      44.0543      6621.13      1.02973
  16.8345      19684.6      5795.43    118      0      50.4403      29.3359      5951.96      1.83064
  21.0432      24982.7      5298.08    140      0      35.8647      20.3506      5021.05      2.86037
  25.2518      30283.7      5300.98    190      0      29.3598      16.4524      5578.37      4.11894
  29.4604      35375.6      5091.90    208      0      23.8631      13.7829      4963.53      5.60633
  33.6691      40208.6      4832.99    240      0      19.6298      11.5849      4711.14      7.32255
  37.8777      44978.3      4769.75    286      0      17.0937      10.1766      4888.81      9.26760
  42.0863      49558.3      4579.91    312      0      14.6857      8.68190      4581.93      11.4415
  46.2950      54129.1      4570.88    317      9      13.2608      7.68684      4203.68      13.8442
  50.5036      58713.7      4584.57    382     20      12.1440      6.52727      4639.00      16.4757
  54.7122      63312.8      4599.05    396      8      11.2078      5.77536      4438.27      19.3361
  58.9209      67978.5      4665.76    442      0      10.5281      5.05082      4653.41      22.4253
  63.1295      72802.7      4824.21    474      4      10.1349      4.54377      4803.93      25.7433
  67.3381      77678.1      4875.42    491      9      9.58167      4.11012      4704.60      29.2902
  71.5467      82542.5      4864.36    537     11      8.98054      3.54971      4822.55      33.0659
  75.7554      87368.7      4826.22    569     13      8.40096      3.18819      4780.15      37.0704
  79.9640      92010.6      4641.87    575     13      7.64332      2.71918      4394.91      41.3038
  84.1726      96484.5      4473.91    647     13      6.98896      2.37464      4521.86      45.7659
  88.3813      100871.      4386.04    657     11      6.51748      2.09835      4281.98      50.4570
  92.5899      105209.      4338.37    678      8      6.14679      1.81265      4167.52      55.3768
  96.7985      109524.      4314.90    756      4      5.84182      1.59029      4416.42      60.5255
 101.0072      113840.      4316.36    766      0      5.59513      1.43196      4285.87      65.9030
 105.2158      118128.      4288.12    798      0      5.33166      1.36292      4254.67      71.5093
 109.4244      122416.      4287.77    846      0      5.12214      1.34145      4333.33      77.3445
 113.6331      126674.      4258.05    860      0      4.89468      1.30480      4209.43      83.4084
 117.8417      130962.      4288.31    916      0      4.75023      1.19398      4351.21      89.7013
 122.0503      135310.      4347.64    936      0      4.64695      1.10186      4349.55      96.2229
 126.2590      139694.      4384.02    958      0      4.52701      1.11620      4336.88      102.973
 130.4676      143945.      4250.54   1018      0      4.24526      1.12641      4321.67      109.953
 134.6762      148123.      4177.90   1030      0      4.04025      1.09747      4161.46      117.161
 138.8849      152105.      3982.73   1029     13      3.73300      1.00346      3841.26      124.598
 143.0935      155898.      3793.04   1086     32      3.44908     0.938013      3745.70      132.264
 147.3021      159551.      3652.78   1105     29      3.22526     0.840148      3563.91      140.158
 151.5108      162990.      3438.79   1113     23      2.95078     0.775872      3284.22      148.282
 155.7194      166234.      3243.73   1230     14      2.70715     0.707254      3329.80      156.634
 159.9280      169301.      3066.91   1208      0      2.49133     0.690667      3009.52      165.215
 164.1367      172228.      2927.67   1270      0      2.31644     0.689043      2941.88      174.025
 168.3453      175056.      2827.41   1300      0      2.18048     0.656993      2834.62      183.064
 172.5539      177775.      2719.47   1306      0      2.04546     0.556192      2671.37      192.331
 176.7625      180411.      2635.62   1398      2      1.93462     0.537902      2704.60      201.828
 180.9712      182939.      2528.70   1362     18      1.81246     0.525734      2468.57      211.553
 185.1798      185389.      2449.71   1398     22      1.71548     0.514925      2398.24      221.507
 189.3884      187755.      2366.18   1448     20      1.61975     0.511403      2345.40      231.690
 193.5971      190067.      2311.46   1471     17      1.54752     0.522631      2276.40      242.102
 197.8057      192288.      2220.97   1485     17      1.45495     0.465092      2160.61      252.742
 202.0144      194387.      2099.15   1591      9      1.34620     0.412560      2141.81      263.612
 206.2230      196413.      2026.45   1594      0      1.27278     0.392839      2028.81      274.710
 210.4316      198333.      1919.83   1608      0      1.18146     0.417366      1899.79      286.037
 214.6402      200143.      1810.34   1674      0      1.09202     0.504836      1828.04      297.593
 218.8489      201874.      1731.00   1660      0      1.02388     0.507734      1699.64      309.378
 223.0575      203452.      1577.50   1750      0     0.915317     0.436821      1601.81      321.391
 227.2661      204937.      1485.00   1756      0     0.845536     0.383584      1484.76      333.634
 231.4748      206293.      1355.88   1763      5     0.757852     0.329632      1336.09      346.105
 235.6834      207519.      1226.09   1834      8     0.672960     0.293817      1234.21      358.805
 239.8920      208644.      1124.88   1821     33     0.606481     0.266468      1104.40      371.734
 244.1007      209695.      1051.54   1835     27     0.557083     0.257603      1022.25      384.892
 248.3093      210660.      964.233   1902     48     0.502098     0.245599      954.991      398.278
 252.5179      211565.      905.378   1891     49     0.463525     0.233085      876.525      411.894
 256.7266      212420.      855.193   1887     63     0.430595     0.236945      812.532      425.738
 260.9352      213230.      809.903   1974     96     0.401161     0.238388      791.892      439.811
 265.1438      214030.      799.836   1951     77     0.389836     0.463051      760.569      454.113
 269.3524      214803.      773.338   2018     86     0.370985     0.386445      748.648      468.643
 273.5611      215492.      688.736   2070     66     0.325276     0.259095      673.321      483.403
 277.7697      216147.      654.683   2083     39     0.304475     0.225036      634.222      498.391
 281.9784      216802.      655.285   2149     49     0.300170     0.232126      645.065      513.608
 286.1870      217453.      651.208   2161     35     0.293885     0.237049      635.086      529.054
 290.3956      218076.      622.403   2184     46     0.276783     0.268011      604.494      544.729
 294.6042      218705.      629.386   2223    101     0.275863     0.350352      613.244      560.633
 298.8129      219272.      567.461   2211    105     0.245192     0.288099      542.118      576.765
 303.0215      219812.      539.592   2177    125     0.229891     0.225803      500.472      593.127
 307.2301      220331.      518.764   2253    173     0.217969     0.230153      491.083      609.717
 311.4388      220839.      508.051   2207    187     0.210561     0.234632      464.709      626.536
 315.6474      221332.      492.870   2261    173     0.201529     0.246097      455.657      643.584
 319.8560      221859.      527.246   2378    126     0.212728     0.263185      505.868      660.860
 324.0647      222340.      481.518   2373    115     0.191740     0.229453      454.999      678.366
 328.2733      222772.      431.892   2462     98     0.169759     0.216344      417.946      696.100
 332.4819      223170.      397.995   2486     94     0.154443     0.206933      383.947      714.063
 336.6906      223549.      378.235   2478     98     0.144928     0.201707      359.132      732.255
 340.8992      223918.      369.304   2573    101     0.139749     0.192280      359.574      750.676
 345.1078      224286.      368.277   2560    108     0.137651     0.185621      352.386      769.326
 349.3165      224635.      349.212   2572    100     0.128942     0.188971      331.638      788.204
 353.5251      224958.      323.068   2663    127     0.117861     0.188153      313.864      807.311
 357.7337      225303.      344.158   2613    161     0.124068     0.194525      324.190      826.647
 361.9424      225645.      342.264   2593    177     0.121943     0.209833      316.198      846.212
 366.1510      225948.      303.149   2675    193     0.106758     0.205588      285.578      866.006
 370.3596      226244.      296.245   2695    159     0.103134     0.198318      277.947      886.029
 374.5683      226524.      280.271   2816    122    0.0964704     0.196682      271.661      906.280
 378.7769      226781.      256.066   2825    111    0.0871544     0.185812      246.211      926.760
 382.9855      227007.      226.171   2850     90    0.0761292     0.179896      216.968      947.469
 387.1942      227213.      206.498   2946     86    0.0687471     0.186524      202.529      968.407
 391.4028      227424.      211.167   2962     62    0.0695419     0.184649      205.983      989.574
 395.6114      227607.      182.710   3000     38    0.0595262     0.182519      178.579      1010.97
 399.8200      227796.      188.770   3136     16    0.0608505     0.179202      190.827      1032.59
 404.0287      227964.      168.580   3106     24    0.0537727     0.180532      167.018      1054.45
 408.2373      228120.      155.947   3094     32    0.0492279     0.185061      152.311      1076.53
 412.4460      228267.      146.665   3210     38    0.0458227     0.178148      147.091      1098.84
 416.6546      228387.      120.347   3157     35    0.0372186     0.182702      117.499      1121.38
 420.8632      228521.      133.281   3245     41    0.0408046     0.176191      132.411      1144.15
 425.0719      228661.      140.315   3275     39    0.0425301     0.197068      139.286      1167.15
 429.2805      228801.      139.722   3274     28    0.0419335     0.214901      137.290      1190.37
 433.4891      228945.      144.610   3372     24    0.0429765     0.210992      144.917      1213.83
 437.6978      229086.      140.863   3360     24    0.0414590     0.210615      139.302      1237.51
 441.9064      229213.      126.743   3373     33    0.0369459     0.213402      124.619      1261.42
 446.1150      229340.      126.737   3448     60    0.0365944     0.195414      126.178      1285.57
 450.3237      229466.      126.452   3394     82    0.0361687     0.192816      122.757      1309.94
 454.5323      229598.      132.010   3383    113    0.0374076     0.190472      126.550      1334.54
 458.7409      229695.      97.0755   3519     93    0.0272548     0.184089      95.9095      1359.36
 462.9496      229816.      121.213   3527     65    0.0337206     0.196648      118.932      1384.42
 467.1582      229952.      135.146   3562     58    0.0372565     0.238936      132.708      1409.71
 471.3668      230109.      157.295   3594     74    0.0429734     0.344442      154.447      1435.22
 475.5754      230292.      182.700   3571     75    0.0494705     0.377468      176.659      1460.96
 479.7841      230450.      158.708   3688     76    0.0425952     0.281483      157.091      1486.94
 483.9927      230556.      106.170   3677     81    0.0282460     0.205025      103.861      1513.14
 488.2014      230673.      116.487   3673    103    0.0307223     0.194308      112.843      1539.57
 492.4100      230781.      107.854   3724    128    0.0282017     0.184407      105.023      1566.23
 496.6186      230856.      75.4701   3746    116    0.0195659     0.180916      73.2937      1593.11
 500.8272      230914.      57.9999   3735    109    0.0149096     0.178057      55.6873      1620.23
 505.0359      230984.      70.1119   3853    105    0.0178725     0.181159      68.8629      1647.57
 509.2445      231034.      49.6124   3864     72    0.0125418     0.179575      48.4617      1675.15
 513.4531      231122.      88.2923   3880     56    0.0221365     0.184534      85.8895      1702.95
 517.6617      231198.      76.2082   4027     63    0.0189507     0.188307      76.3143      1730.98
 521.8704      231262.      63.5904   3961     63    0.0156851     0.179477      62.1286      1759.24
 529.5760      231387.      124.488   7429    121    0.0165808     0.183912      123.179      1811.58
 533.7847      231448.      61.5199   4082     64    0.0148342     0.183504      60.5532      1840.49
 538.2037      231538.      89.6579   4266     74    0.0204239     0.194974      87.1285      1871.09
 542.8438      231572.      33.7750   4584     94   0.00726618     0.182758      33.3082      1903.49
 547.7158      231646.      74.1105   4834     76    0.0150520     0.180627      72.7612      1937.81
 552.8313      231729.      83.8472   5080    144    0.0160715     0.181967      81.6434      1974.18
 558.2027      231822.      92.4176   5377    185    0.0167114     0.188796      89.8571      2012.72
 563.8427      231882.      60.3674   5651    203    0.0102940     0.181198      58.1716      2053.60
 569.7646      231907.      25.2376   6055    163   0.00405691     0.177420      24.5646      2096.97
 575.9827      231974.      66.9548   6424    194    0.0101416     0.178401      65.1498      2142.99
 582.5117      232049.      75.0061   6794    204    0.0107012     0.174879      72.7037      2191.85
 589.3671      232128.      78.4636   7225    213    0.0105396     0.176824      76.1488      2243.74
 596.5653      232247.      119.509   7625    239    0.0151072     0.182750      115.192      2298.88
 604.1234      232429.      181.485   8210    242    0.0215812     0.211716      177.181      2357.50
 612.0594      232513.      83.7996   8687    205   0.00936945     0.200675      81.3924      2419.85
 620.3922      232684.      170.974   9439    141    0.0179655     0.192948      169.576      2486.18
 629.1416      232866.      182.005  10021    115    0.0179651     0.246055      180.028      2556.80
 638.3286      233127.      261.285  10693     91    0.0242147     0.263881      258.928      2632.02
