# All data in this file is centered around the brightness peak.

# FILENAME = J2357-32_R_ss.fits / Image file name
# PIXSIZE =      0.432155 / Pixel size [arcsec]
# FLUX_UNITS = erg/cm^2/Angstrom/sec / Flux units
# FLUX_SCALE =    5.1391048e-19 / Flux scale [above units / (DN/sec)]
# FLUXCAL =    1 / Flux calibration complete?
# PROFTYPE = brightness / Profile type (isophote/brightness/other)
# NUMGALS =        1 / Number of sources in image
#
# GALINDEX =        1 / Source index (1 - N)
# XCENTER =       386.000 / X(center) [pixels]
# YCENTER =       1092.00 / Y(center) [pixels]
# AXERAT =       1.54903 / Axial ratio (a/b)
# PA_IMAGE =       102.356 / Position angle, counterclockwise from Up [deg]
# PA =        102.54116 / Position angle, from N towards E [deg]
# SKYLEV =       4.49036 / Sky level [DN/sec]
# ERR_SKY_PIXEL =      0.154252 / Sky RMS (pixel-to-pixel) [DN/sec]
# ERR_SKY_BOX =    0.00311707 / Sky RMS (box-to-box) [DN/sec]
# FLUXRAD_S =       1021.12 / Sky aperture radius [pixels]
# FLUXRAD_F =       1021.12 / Flux aperture radius [pixels]
# FLUXRAD_C =      -999.000 / Radius where SNR=3 [pixels]
# FLUX_S =        1389524.5 / Flux within sky aperture [DN/sec]
# FLUX_F =        1389524.5 / Flux within flux aperture [DN/sec]
# ERR_FLUX_S_SKY =       6591.57 / Uncertainty in FLUX_S due to sky [DN/sec]
# ERR_FLUX_F_SKY =       6591.57 / Uncertainty in FLUX_F due to sky [DN/sec]
# RE_F =        290.34837 / Flux aperture half-light radius [pixels]
# ERR_RE_F_SKY =       0.95964558 / Uncertainty in RE_F due to sky [pixels]
# SE_F =        2.6232974 / Face-on surface brightness within RE_F [DN/sec/pixel]
#  a[pix]  F(interior)     dF       N(good) N(bad) SurfBright  Sigma(SB)    dF(raw)  Sigma(F,sky)
# all Flux and Surface Brightness values are in [DN/sec]
   0.0000      0.00000      0.00000      1      0      130.902      0.00000      130.902      0.00000
   6.1650      5673.11      5673.11     76      0      73.5990      45.1059      5593.52     0.240268
  12.3299      10690.3      5017.22    234      0      21.6967      7.49734      5077.02     0.961071
  18.4949      16190.7      5500.38    388      0      14.2716      1.27973      5537.39      2.16241
  24.6598      22933.8      6743.12    538      0      12.4972      1.41789      6723.51      3.84428
  30.8248      30656.4      7722.55    700      0      11.1319     0.930986      7792.32      6.00669
  36.9897      39599.3      8942.90    844      0      10.5472     0.831234      8901.82      8.64964
  43.1547      49696.5      10097.3    988      0      10.0765     0.761865      9955.61      11.7731
  49.3196      60635.0      10938.5   1164      0      9.46055     0.810006      11012.1      15.3771
  55.4846      72144.4      11509.4   1306      0      8.78321     0.886827      11470.9      19.4617
  61.6495      84093.5      11949.1   1468      0      8.15895      1.27657      11977.3      24.0268
  67.8145      96463.4      12369.8   1612      0      7.64179      1.24233      12318.6      29.0724
  73.9794      109539.      13075.8   1786      0      7.37551     0.863598      13172.7      34.5986
  80.1444      123247.      13707.9   1928      0      7.11350     0.976457      13714.8      40.6052
  86.3093      137592.      14345.0   2082      0      6.89265      1.02690      14350.5      47.0925
  92.4743      152380.      14788.0   2238      0      6.61549      1.00322      14805.5      54.0602
  98.6392      167344.      14964.3   2380      0      6.26245     0.851471      14904.6      61.5085
 104.8042      182528.      15183.7   2548      0      5.96919     0.920529      15209.5      69.4374
 110.9691      197887.      15358.8   2680      0      5.69298     0.831194      15257.2      77.8467
 117.1341      213627.      15740.2   2838      0      5.51897     0.965554      15662.8      86.7366
 123.2990      229629.      16002.2   3034      0      5.32310      1.19645      16150.3      96.1071
 129.4640      245505.      15875.6   3162      0      5.02339     0.770446      15884.0      105.958
 135.6289      261317.      15812.2   3304      0      4.77063     0.713146      15762.2      116.290
 141.7939      277210.      15892.8   3484      0      4.58183     0.677917      15963.1      127.102
 147.9588      293090.      15879.7   3610      0      4.38324     0.743562      15823.5      138.394
 154.1238      309558.      16468.2   3784      0      4.36015     0.910275      16498.8      150.167
 160.2887      326075.      16517.5   3930      0      4.20170     0.717907      16512.7      162.421
 166.4537      342460.      16384.9   4096      0      4.01069     0.637404      16427.8      175.155
 172.6186      359210.      16749.7   4218      0      3.95089     0.744398      16664.9      188.370
 178.7836      376117.      16907.0   4404      2      3.84807     0.700820      16946.9      202.065
 184.9485      393296.      17178.9   4554      0      3.77741     0.835961      17202.3      216.241
 191.1135      410338.      17042.5   4698      0      3.62455     0.696510      17028.1      230.897
 197.2784      427330.      16991.6   4860      0      3.49901     0.679680      17005.2      246.034
 203.4434      444223.      16893.2   5004      0      3.37170     0.684812      16872.0      261.652
 209.6083      461290.      17066.5   5159      3      3.30461     0.605125      17048.5      277.749
 215.7733      478791.      17501.0   5257     49      3.29052     0.731445      17298.2      294.328
 221.9382      496222.      17431.6   5405     63      3.18514     0.579690      17215.7      311.387
 228.1032      513673.      17450.4   5583     31      3.10122     0.535092      17314.1      328.926
 234.2681      531382.      17709.5   5798      0      3.06334     0.525290      17761.3      346.947
 240.4331      549457.      18074.8   5962      0      3.04534     0.581743      18156.3      365.447
 246.5980      567702.      18244.7   6063     27      2.99612     0.685548      18165.5      384.428
 252.7630      585732.      18030.7   6156     80      2.88787     0.555116      17777.7      403.890
 258.9279      603790.      18057.7   6372     36      2.82251     0.572780      17985.0      423.832
 265.0929      621916.      18125.9   6546     12      2.76651     0.729407      18109.5      444.255
 271.2578      639869.      17952.8   6659     25      2.67709     0.592448      17826.8      465.158
 277.4228      657582.      17713.1   6813     45      2.58199     0.537005      17591.1      486.542
 283.5878      675380.      17798.3   6959     47      2.53739     0.606542      17657.7      508.407
 289.7527      692829.      17448.9   7141     19      2.43409     0.546376      17381.8      530.751
 295.9177      710135.      17306.4   7292     36      2.36338     0.569120      17233.8      553.577
 302.0826      727256.      17120.5   7456     66      2.28979     0.621346      17072.7      576.883
 308.2476      744249.      16993.3   7473    145      2.22686     0.602349      16641.3      600.669
 314.4125      760808.      16558.8   7420    366      2.12695     0.568042      15782.0      624.936
 320.5775      777058.      16249.8   7289    661      2.04674     0.454632      14918.7      649.684
 326.7424      793664.      16606.7   7244    808      2.05185     0.646666      14863.6      674.912
 332.9073      810393.      16728.6   7297    961      2.02827     0.710406      14800.3      700.621
 339.0723      827343.      16950.2   7259   1139      2.01744     0.989512      14644.6      726.810
 345.2372      843902.      16558.3   7271   1247      1.93528     0.645352      14071.4      753.479
 351.4022      860636.      16734.3   7380   1348      1.92122     0.646347      14178.6      780.630
 357.5672      877144.      16507.8   7394   1502      1.86227     0.555992      13769.6      808.261
 363.7321      893471.      16327.1   7392   1616      1.81039     0.626118      13382.4      836.372
 369.8971      909573.      16102.7   7463   1715      1.75551     0.487980      13101.3      864.964
 376.0620      925213.      15639.7   7498   1838      1.67685     0.363523      12573.0      894.036
 382.2270      940600.      15387.1   7509   1977      1.62294     0.333242      12186.7      923.589
 388.3919      955811.      15211.2   7610   2016      1.57872     0.380448      12014.0      953.623
 394.5569      970772.      14960.7   7683   2002      1.52827     0.415362      11741.7      984.137
 400.7218      985432.      14659.8   7760   1630      1.47432     0.512631      11440.7      1015.13
 406.8868      999907.      14474.5   7822   1472      1.43345     0.476080      11212.5      1046.61
 413.0517  1.01400e+06      14095.9   7899   1395      1.37497     0.440829      10860.9      1078.56
 419.2167  1.02796e+06      13958.9   7884   1393      1.34144     0.469949      10575.9      1111.00
 425.3816  1.04116e+06      13195.6   7809   1481      1.24957     0.398951      9757.87      1143.91
 431.5466  1.05381e+06      12650.8   7833   1464      1.18073     0.368964      9248.66      1177.31
 437.7115  1.06614e+06      12331.0   8016   1272      1.13457     0.396865      9094.71      1211.19
 443.8765  1.07801e+06      11867.8   8154   1193      1.07667     0.381178      8779.19      1245.55
 450.0414  1.08945e+06      11442.2   8235   1155      1.02375     0.382304      8430.59      1280.39
 456.2064  1.10051e+06      11056.3   8311   1108     0.975760     0.338889      8109.54      1315.71
 462.3713  1.11087e+06      10363.8   8430   1055     0.902368     0.234957      7606.96      1351.51
 468.5363  1.12085e+06      9978.30   8465   1074     0.857294     0.232594      7256.99      1387.79
 474.7012  1.13058e+06      9731.36   8493   1099     0.825152     0.254140      7008.01      1424.55
 480.8662  1.14002e+06      9445.32   8454   1176     0.790562     0.242942      6683.41      1461.79
 487.0311  1.14912e+06      9098.56   8468   1230     0.751836     0.240677      6366.55      1499.51
 493.1961  1.15809e+06      8969.67   8371   1370     0.731865     0.278931      6126.44      1537.71
 499.3610  1.16681e+06      8714.23   8341   1437     0.702189     0.285080      5856.96      1576.40
 505.5260  1.17533e+06      8522.40   8406   1451     0.678301     0.297931      5701.79      1615.56
 511.6909  1.18354e+06      8210.90   8529   1387     0.645593     0.286349      5506.26      1655.20
 517.8559  1.19134e+06      7802.45   8665   1310     0.606133     0.223525      5252.14      1695.33
 524.0209  1.19904e+06      7702.57   8743   1270     0.591286     0.302510      5169.62      1735.93
 530.1858  1.20642e+06      7379.95   8879   1272     0.559898     0.238879      4971.33      1777.02
 536.3508  1.21343e+06      7001.57   8886   1289     0.525048     0.217984      4665.58      1818.59
 542.5157  1.22024e+06      6813.91   8933   1310     0.505139     0.195656      4512.40      1860.63
 548.6807  1.22665e+06      6414.42   9041   1253     0.470146     0.159576      4250.59      1903.16
 554.8456  1.23291e+06      6256.30   9051   1291     0.453433     0.159436      4104.02      1946.17
 561.0106  1.23911e+06      6197.96   9146   1301     0.444246     0.184472      4063.08      1989.66
 567.1755  1.24518e+06      6070.83   9238   1256     0.430373     0.165861      3975.78      2033.63
 573.3405  1.25112e+06      5944.87   9322   1225     0.416893     0.172224      3886.28      2078.08
 579.5054  1.25707e+06      5946.35   9296   1346     0.412531     0.193886      3834.89      2123.01
 585.6703  1.26284e+06      5769.18   9172   1530     0.396008     0.198791      3632.19      2168.42
 591.8353  1.26840e+06      5564.11   8979   1802     0.377930     0.188083      3393.43      2214.31
 598.0002  1.27372e+06      5311.44   9029   1836     0.357033     0.173726      3223.65      2260.68
 604.1652  1.27883e+06      5113.79   9156   1764     0.340219     0.165987      3115.04      2307.53
 610.3301  1.28368e+06      4846.19   9275   1700     0.319143     0.141756      2960.05      2354.86
 616.4951  1.28841e+06      4732.88   9312   1740     0.308547     0.138980      2873.19      2402.68
 622.6601  1.29307e+06      4661.80   9579   1531     0.300889     0.142356      2882.22      2450.97
 628.8250  1.29757e+06      4496.98   9734   1456     0.287394     0.143716      2797.49      2499.75
 634.9900  1.30184e+06      4277.03   9843   1415     0.270669     0.133712      2664.19      2549.00
 641.1549  1.30594e+06      4096.06   9953   1378     0.256714     0.130189      2555.07      2598.74
 647.3199  1.30988e+06      3936.69  10123   1300     0.244362     0.130558      2473.67      2648.95
 653.4848  1.31366e+06      3784.77  10256   1258     0.232707     0.135976      2386.65      2699.65
 659.6498  1.31724e+06      3582.38  10375   1158     0.218192     0.123802      2263.74      2750.83
 665.8147  1.32063e+06      3389.47  10500   1111     0.204525     0.121282      2147.52      2802.48
 671.9797  1.32388e+06      3246.77  10585   1095     0.194106     0.120245      2054.62      2854.62
 678.1446  1.32701e+06      3129.34  10722   1064     0.185379     0.124750      1987.64      2907.24
 684.3096  1.32989e+06      2881.00  10753   1065     0.169122     0.115789      1818.57      2960.34
 690.4745  1.33267e+06      2782.13  10821   1082     0.161855     0.112843      1751.43      3013.92
 696.6395  1.33535e+06      2675.49  10899   1086     0.154266     0.117758      1681.35      3067.98
 702.8044  1.33784e+06      2488.77  10993   1069     0.142235     0.116538      1563.59      3122.52
 708.9694  1.34026e+06      2425.73  11132   1027     0.137423     0.129011      1529.79      3177.54
 715.1343  1.34267e+06      2406.69  11181   1018     0.135163     0.167451      1511.26      3233.04
 721.2993  1.34491e+06      2242.38  11286   1027     0.124855     0.120701      1409.11      3289.02
 727.4642  1.34707e+06      2155.30  11340    994     0.118984     0.124533      1349.28      3345.49
 733.6292  1.34911e+06      2043.85  11374   1042     0.111880     0.112879      1272.52      3402.43
 739.7941  1.35101e+06      1902.37  11337   1150     0.103263     0.111599      1170.70      3459.85
 745.9590  1.35279e+06      1780.93  11436   1132    0.0958697     0.109545      1096.37      3517.76
 752.1240  1.35451e+06      1715.67  11512   1118    0.0915956     0.112809      1054.45      3576.14
 758.2890  1.35617e+06      1663.10  11509   1212    0.0880652     0.115462      1013.54      3635.01
 764.4540  1.35777e+06      1599.63  11539   1269    0.0840181     0.115130      969.485      3694.36
 770.6189  1.35930e+06      1531.98  11757   1143    0.0798189     0.118543      938.431      3754.18
 776.7839  1.36075e+06      1449.43  11956    985    0.0749161     0.123853      895.697      3814.49
 782.9489  1.36210e+06      1348.21  12041    957    0.0691331     0.113397      832.432      3875.28
 789.1138  1.36335e+06      1249.68  12072   1046    0.0635787     0.110098      767.522      3936.55
 795.2787  1.36456e+06      1204.93  12180    993    0.0608243     0.112944      740.840      3998.30
 801.4437  1.36574e+06      1186.41  12306    885    0.0594278     0.114802      731.319      4060.52
 807.6086  1.36696e+06      1212.80  12383    925    0.0602828     0.117677      746.483      4123.23
 813.7736  1.36811e+06      1148.98  12410    980    0.0566776     0.127844      703.370      4186.42
 819.9385  1.36916e+06      1050.77  12416   1032    0.0514409     0.113512      638.690      4250.10
 826.1035  1.37016e+06      1004.78  12443   1141    0.0488218     0.114615      607.490      4314.25
 832.2684  1.37105e+06      892.952  12502   1132    0.0430651     0.112033      538.400      4378.88
 838.4333  1.37191e+06      857.447  12610   1087    0.0410479     0.112307      517.614      4443.99
 844.5983  1.37281e+06      901.486  12636   1125    0.0428395     0.128276      541.320      4509.58
 850.7632  1.37363e+06      819.080  12680   1163    0.0386409     0.116453      489.966      4575.66
 856.9282  1.37445e+06      817.141  12696   1213    0.0382706     0.113204      485.884      4642.21
 863.0932  1.37520e+06      751.099  12803   1177    0.0349254     0.111209      447.150      4709.25
 869.2581  1.37589e+06      692.123  12923   1138    0.0319542     0.111159      412.945      4776.76
 875.4231  1.37662e+06      727.084  13037   1071    0.0333309     0.120602      434.536      4844.76
 881.5880  1.37739e+06      772.896  13273    960    0.0351826     0.115020      466.979      4913.23
 887.7530  1.37814e+06      750.639  13449    860    0.0339312     0.116291      456.340      4982.19
 893.9179  1.37880e+06      662.301  13488    892    0.0297310     0.110947      401.012      5051.63
 900.0829  1.37934e+06      535.058  13518    886    0.0238538     0.107437      322.456      5121.55
 906.2478  1.37987e+06      527.349  13707    849    0.0233498     0.108241      320.056      5191.94
 912.4128  1.38041e+06      541.241  13821    767    0.0238022     0.109318      328.970      5262.82
 918.5777  1.38097e+06      565.755  13920    740    0.0247130     0.111999      344.005      5334.18
 924.7427  1.38152e+06      547.449  13949    774    0.0237532     0.115672      331.333      5406.02
 930.9077  1.38217e+06      646.304  13988    857    0.0278560     0.119995      389.650      5478.34
 937.0726  1.38273e+06      559.728  13896    994    0.0239655     0.114091      333.024      5551.15
 943.2375  1.38328e+06      555.318  13917   1086    0.0236206     0.111492      328.728      5624.43
 949.4025  1.38394e+06      658.060  13810   1236    0.0278087     0.127306      384.038      5698.19
 955.5674  1.38447e+06      529.933  13722   1375    0.0222490     0.109802      305.301      5772.43
 961.7324  1.38511e+06      635.785  13889   1328    0.0265219     0.128450      368.362      5847.16
 967.8973  1.38573e+06      624.964  13989   1263    0.0259035     0.124386      362.364      5922.36
 974.0623  1.38629e+06      555.475  14205   1148    0.0228774     0.115901      324.973      5998.04
 980.2272  1.38675e+06      462.146  14344   1069    0.0189134     0.111918      271.294      6074.21
 986.3922  1.38721e+06      460.882  14486   1021    0.0187435     0.117899      271.519      6150.85
 992.5571  1.38768e+06      470.566  14566    964    0.0190179     0.117552      277.015      6227.98
 998.7220  1.38806e+06      375.325  14757    958    0.0150750     0.114553      222.462      6305.59
1004.8870  1.38849e+06      433.915  14873    885    0.0173209     0.116480      257.614      6383.67
1011.0520  1.38900e+06      511.975  14935    838    0.0203118     0.124424      303.357      6462.24
1021.1190  1.38952e+06      522.274  24446   1467    0.0125878     0.111092      307.721      6591.57
1027.2841  1.38983e+06      303.398  15086    997    0.0118461     0.106660      178.710      6671.40
1033.7572  1.39023e+06      401.550  15888   1006    0.0148404     0.117062      235.784      6755.75
1040.5541  1.39071e+06      476.671  16644   1105    0.0166704     0.130297      277.462      6844.87
1047.6908  1.39104e+06      337.096  17623   1260    0.0111528     0.114434      196.546      6939.09
1055.1843  1.39132e+06      279.915  18701   1110   0.00875864     0.109371      163.795      7038.71
1063.0525  1.39159e+06      262.339  19880   1071   0.00776111     0.108615      154.291      7144.07
1071.3141  1.39194e+06      352.152  21049   1185   0.00984709     0.114368      207.271      7255.54
1079.9888  1.39237e+06      431.158  22231   1186    0.0113917     0.127970      253.248      7373.52
1089.0973  1.39272e+06      348.476  23507   1247   0.00869684     0.108239      204.437      7498.42
1098.6611  1.39327e+06      551.509  24795   1341    0.0129966     0.118375      322.251      7630.69
1108.7031  1.39368e+06      416.086  26386   1297   0.00925547     0.110705      244.215      7770.82
1119.2473  1.39415e+06      467.152  27540   1750   0.00980501     0.117043      270.030      7919.33
1130.3186  1.39468e+06      528.567  28477   2476    0.0104644     0.112296      297.995      8076.77
1141.9435  1.39537e+06      688.861  29822   2995    0.0128586     0.118868      383.469      8243.76
1154.1498  1.39610e+06      726.606  31223   3462    0.0127830     0.117350      399.125      8420.94
1166.9662  1.39728e+06      1183.61  33445   3343    0.0196181     0.147751      656.127      8609.00
1180.4236  1.39821e+06      925.939  36503   2479    0.0144526     0.131142      527.564      8808.70
1194.5537  1.39898e+06      777.272  38833   2505    0.0114203     0.115856      443.483      9020.85
1209.3905  1.39968e+06      698.202  41325   2475   0.00965231     0.110488      398.882      9246.33
1224.9689  1.40042e+06      735.947  43850   2614   0.00956854     0.145321      419.581      9486.07
1241.3263  1.40108e+06      666.145  46473   2847   0.00814178     0.108847      378.373      9741.10
